MIRICO/SHELL project - Processed LDS file generated on
Sun Jul 09 20:02:35 2017
Time stamp for record start
05/11/2017  09:41:53.0000
Nb of points in the record
         879
Beam position index
       1.0000000
Beam angle (degrees)
      -18.455000
Open Path length (m)
       34.890000
****************** Temporal data record ************************
Elapsedtime_sec Temp_K Press_Pa Humidity_ppmv WindX_m/s WindY_m/s WindZ_m/s Speedofsound_m/s CH4vmr_ppmv CH4vmrerror_ppmv  
      0.00000000       288.64307       98746.570       11498.650      -1.1397500       1.2747500   -0.0025000000       341.36300       2.2164507     0.010764440
       5.0000131       288.64956       98740.877       11472.255     -0.14550000       2.1372500     0.031250000       341.52200       2.1837051     0.015767132
       9.9999860       288.71061       98744.180       11485.792     0.040250000       2.8290000     -0.11925000       341.86700       2.2038769     0.012825404
       14.999999       288.70844       98747.202       11451.816     -0.13325000       3.6410000     -0.53700000       340.71400       2.1852444     0.014766673
       20.000012       288.64734       98740.511       11366.518     -0.65600000       3.3847500     -0.31800000       341.12100       2.1978762     0.011360024
       24.999985       288.64365       98745.715       11327.776     0.070000000       3.0925000   -0.0025000000       341.33000       2.2117049     0.014266445
       30.999993       288.64379       98771.955       11280.673      0.12800000       3.5257500    -0.099000010       341.14200       2.1916457     0.015750139
       36.000006       288.65271       98775.605       11272.779      0.32050000       2.5257500     -0.51925000       340.85000       2.1653578     0.018013719
       40.999979       288.70332       98774.342       11300.466    -0.049500000       2.7812500     -0.17275000       341.26200       2.1957648     0.016187279
       45.999992       288.71479       98767.103       11315.483      0.59450000       3.1200000     -0.44400000       340.74000       2.1765116     0.016382663
       51.000005       288.68236       98741.354       11328.747       1.4290000       2.4782500      0.45700000       341.02800       2.1553107     0.018372799
       56.000018       288.71969       98742.420       11374.267     0.086000000       2.6107500    -0.020250000       340.93900       2.1511616     0.017217302
       60.999991       288.80001       98754.808       11436.527      0.18500000       2.1330000    -0.020500000       341.40600       2.1848590     0.014835838
       66.000004       288.82142       98755.890       11498.917     -0.33125000       3.0450000     -0.61200000       341.05100       2.1592815     0.016438097
       71.000017       288.87688       98769.590       11608.199     -0.14975000       1.6085000     -0.68350010       341.40600       2.1528397     0.018086782
       75.999990       288.84164       98765.460       11637.436    -0.036750000      0.79600010       1.1175000       341.95800       2.1831073     0.011939343
       81.000003       288.71129       98735.351       11631.444      0.91625010       3.0555000     -0.35250000       340.77700       2.1921477     0.014134259
       86.000016       288.64119       98737.273       11617.077    -0.086250010       2.2887500     -0.29025000       340.79100       2.1707730     0.016214413
       90.999989       288.55623       98754.493       11560.609     -0.40625000       1.5357500    -0.072000000       340.96300       2.1453675     0.016910616
       96.000002       288.49551       98758.417       11519.498      0.26925000       2.6830000      0.37575000       341.60500       2.1286856     0.020137153
       101.00002       288.45199       98775.247       11481.468      0.46275000       2.2497500     -0.25850000       340.65900       2.1459804     0.019863407
       105.99999       288.42124       98771.348       11427.345      0.37275000       2.7380000     -0.24325000       341.36700       2.1107474     0.021450991
       111.00000       288.40677       98741.455       11359.673     -0.48075000       1.8757500   -0.0070000000       341.80700       2.1636415     0.016628881
       116.00001       288.37671       98742.680       11290.839      -1.0692500       2.8660000     -0.39025000       341.64100       2.1249449     0.020056054
       121.99998       288.35073       98753.610       11188.542     -0.32225000       1.4432500    -0.050250000       341.86300       2.1252692     0.021865440
       127.00000       288.31475       98780.144       11134.753     -0.77650000       1.6967500      0.17600000       341.37200       2.1033451     0.021690221
       132.00001       288.29305       98786.702       11107.473     -0.93875000       1.1617500      0.72100000       341.09700       2.1298609     0.018182225
       136.99998       288.28489       98762.312       11125.862     -0.41700000       1.9112500     -0.43325000       340.84400       2.1251028     0.018013338
       141.99999       288.29358       98754.211       11145.241     -0.60000000       1.8225000     -0.27525000       341.19600       2.1269632     0.016491513
       147.00001       288.31455       98748.583       11175.482     -0.71725000       2.3182500      0.26375000       341.02900       2.1081539     0.018124983
       151.99998       288.34279       98734.961       11220.921       1.2565000      0.79825000     0.039750000       341.85400       2.1310365     0.017355033
       156.99999       288.38451       98741.146       11266.649       1.5000000       1.5847500      0.17675000       341.70800       2.1546628     0.011650181
       162.00001       288.44957       98767.771       11315.098      0.55450000       1.4385000     -0.37500000       341.53400       2.1183125     0.018818922
       166.99998       288.48646       98774.145       11361.843      0.52225000       1.6842500     -0.19275000       341.01100       2.1630480     0.019976727
       171.99999       288.54567       98773.967       11461.009      0.26225000       1.3812500     0.072500010       341.01600       2.1348531     0.018510453
       177.00001       288.67567       98749.576       11707.058      0.10725000       1.4675000     -0.39200000       341.78800       2.1141060     0.018320290
       181.99998       288.71840       98742.031       11811.790      0.80625000       1.4192500     0.012500000       341.15700       2.0977949     0.018203280
       186.99999       288.71002       98740.875       11873.998     -0.27225000       1.0212500    -0.025000000       341.88700       2.1122944     0.017579932
       192.00000       288.71264       98742.251       11907.623     -0.63125000       1.9767500    -0.089000000       342.24900       2.0833294     0.018654051
       197.00002       288.69068       98749.779       11878.683      0.23925000       2.6037500      0.18625000       342.12300       2.0550520     0.019288200
       201.99999       288.58128       98774.090       11704.268     -0.45525000       2.8792500     -0.18725000       341.66300       2.0808746     0.017267200
       207.00000       288.58567       98774.297       11655.568     -0.27625000       2.6087500      0.13475000       341.50200       2.0873007     0.014637467
       213.00001       288.65381       98766.401       11636.592      0.11025000       2.0710000      0.14975000       341.95900       2.1034110     0.015218497
       217.99998       288.69024       98741.971       11593.519      0.92050000       2.2387500      0.37725000       341.35800       2.0959353     0.017186596
       223.00000       288.70946       98735.529       11548.314       1.3750000       2.0732500      0.31975000       341.30200       2.1034810     0.017373746
       228.00001       288.69994       98739.497       11483.396      0.71450000       1.6482500      0.20025000       341.75600       2.0731151     0.016759910
       232.99998       288.69982       98743.903       11432.651      0.20025000       2.5082500     0.037750000       341.55200       2.1113250     0.015491843
       238.00000       288.72960       98766.987       11416.982      0.73950000       2.5515000     -0.56200000       340.75300       2.1111993     0.011830174
       243.00001       288.70684       98774.259       11357.181      0.59925000       1.4140000   -0.0060000000       341.65500       2.0722666     0.017265927
       247.99998       288.63201       98775.789       11249.573      0.28500000       1.9295000    -0.013750000       341.50000       2.0982576     0.016385660
       253.00000       288.59199       98772.215       11188.913     0.024750000       1.4337500    -0.094250000       341.63800       2.1139270     0.016384996
       258.00001       288.50506       98751.774       11088.988      0.16100000       1.5915000     -0.13975000       341.74500       2.0810490     0.016673703
       262.99998       288.47842       98741.914       11063.916     -0.64125000       2.7687500     -0.12775000       341.52700       2.0552513     0.019080520
       267.99999       288.56219       98728.880       11160.347     -0.73475000       2.3917500     -0.32350000       341.43600       2.0553729     0.017607571
       273.00001       288.55923       98726.745       11182.585     0.084250000       2.9582500     -0.51700000       341.01400       2.1143771     0.016835010
       277.99998       288.50770       98737.558       11191.421      0.24975000       2.6387500     -0.65775000       341.22000       2.0485807     0.017307652
       282.99999       288.49748       98745.678       11214.682     -0.55125000       1.9575000      0.68375000       341.58400       2.0698715     0.011942496
       288.00001       288.43812       98766.904       11183.209      0.62000000       1.5280000     0.092000010       341.43200       2.1060486     0.010721386
       292.99998       288.43205       98774.226       11203.380    -0.040500000       1.0590000      0.30100000       341.17600       2.0915018     0.011740837
       297.99999       288.52355       98775.534       11302.805      0.66100000       1.0087500      0.24825000       341.90900       2.0916199     0.013873888
       304.00000       288.56884       98770.391       11364.574      0.26150000       1.7682500     -0.25675000       340.60800       2.0745749     0.014980755
       309.00001       288.58227       98750.871       11411.353    -0.084000010       1.3675000      0.72200010       341.51200       2.1026785     0.013661772
       313.99999       288.61240       98740.142       11445.681      0.18750000       1.4410000    0.0057500000       341.09200       2.0730430     0.010747354
       319.00000       288.62481       98724.005       11443.672     -0.20000000       1.6490000     -0.15550000       340.80000       2.0884281     0.016815189
       324.00001       288.65804       98721.254       11461.903      0.47250000       1.5110000     -0.34500000       341.02900       2.0602653     0.012239207
       328.99999       288.74618       98727.760       11506.886      0.64600000       1.1882500     -0.15175000       341.59800       2.0684638     0.017580369
       334.00000       288.76849       98736.292       11510.369       1.2392500     0.063500000      0.53400000       341.79600       2.1295298     0.015510993
       339.00001       288.73174       98760.146       11477.534      0.41600000       1.1462500      0.28725000       341.93000       2.1038256     0.016033075
       343.99998       288.75615       98771.107       11480.080      0.24875000       1.1990000    -0.053000000       341.43200       2.1249103     0.012662693
       349.00000       288.76973       98781.531       11461.061      0.85625000      0.69100000    -0.037000000       341.86200       2.0919315     0.015803578
       354.00001       288.80732       98783.756       11477.138       1.0590000      0.49975000      0.43275000       342.01800       2.0843835     0.016721338
       358.99998       288.92850       98773.795       11560.012       1.0315000      0.67825000      0.23625000       341.62600       2.0922310     0.017081242
       364.00000       288.98027       98768.393       11591.647       1.2442500      0.97025010    -0.055750000       341.82500       2.0628136     0.020799846
       369.00001       288.98202       98760.080       11600.210      0.93475000      0.80200000     -0.11725000       340.78600       2.0973411     0.016194412
       373.99998       289.01172       98752.098       11622.798      0.76625000      0.86925010     -0.37500000       340.69800       2.0564823     0.017417551
       379.00000       289.05050       98743.309       11659.148      0.47375000      0.55975000     -0.24900000       340.80500       2.0741734     0.018921509
       384.00001       289.05667       98737.624       11645.876   -0.0015000000      0.52850000      0.19425000       340.74400       2.1147494     0.014969974
       390.00002       289.06788       98728.353       11614.945     -0.22950000      0.81000010    -0.045000000       341.10300       2.0848391     0.018445641
       394.99999       289.04546       98728.869       11569.419      0.85600010       1.6077500      0.19850000       341.19500       2.0566298     0.018925431
       400.00000       288.94707       98737.776       11441.276      0.61025010      0.82650010     -0.46325000       341.14700       2.0837199     0.014747337
       405.00002       288.92922       98743.411       11401.407      0.26575000       1.4217500     -0.58425000       341.10300       2.0921245     0.016501273
       409.99999       288.95381       98752.111       11404.641      0.41200000       1.4167500      0.24200000       341.38900       2.0945836     0.013379469
       415.00000       288.94391       98760.051       11399.626     0.098250000       1.2985000     0.044250000       341.44600       2.0851423     0.014440861
       420.00002       288.98136       98768.284       11444.753     -0.33800000       1.6442500    0.0065000000       341.58600       2.0507399     0.018106470
       424.99999       288.94167       98773.624       11436.407     -0.60725000       1.1892500     -0.45075000       341.04900       2.1037906     0.011083700
       430.00000       288.81711       98780.141       11396.426     -0.67500000       1.6682500      0.18350000       341.58000       2.0330569     0.016530589
       435.00001       288.76325       98782.942       11374.583     -0.80350010       1.6875000      0.37525000       341.27500       2.0551665     0.017202143
       439.99999       288.70095       98780.277       11337.529     -0.47200000       1.5022500     -0.28925000       341.42100       2.0839510     0.017588179
       445.00000       288.67336       98780.304       11315.283     0.048000000       1.2577500     -0.19725000       341.54200       2.0976168     0.015348721
       450.00001       288.70026       98780.385       11305.322      0.45900000       1.5525000     0.031750000       341.97000       2.0819562     0.017822870
       454.99999       288.70026       98780.429       11298.552    -0.016500000       1.5780000      0.22625000       342.27900       2.0290221     0.017704633
       460.00000       288.68845       98782.503       11276.942      0.50375000       1.9882500      0.27100000       341.32000       2.0834728     0.016841597
       465.00001       288.70424       98779.303       11299.183       1.3905000       1.0292500      0.19650000       342.25000       2.0946507     0.016378357
       469.99999       288.72928       98773.195       11352.190       1.4145000       1.0632500      0.47875000       341.34100       2.0900113     0.015107530
       475.00000       288.76583       98767.518       11403.110       1.5717500       2.3167500     -0.43925000       340.90000       2.0825381     0.016797562
       481.00001       288.84010       98755.057       11491.722       1.0085000       1.5187500    -0.054000000       341.61400       2.1113270     0.016652686
       485.99998       288.89069       98750.738       11570.301       1.5720000       1.0487500      0.57250010       341.90700       2.0914627     0.018222949
       490.99999       288.94081       98751.632       11645.523       1.1070000       2.8862500      0.10475000       341.29100       2.0513991     0.023114936
       496.00001       288.99082       98746.749       11742.000      -1.3427500       2.8865000     -0.18475000       341.45900       2.0600254     0.019411098
       501.00002       289.03964       98741.173       11881.545      0.98875000       2.4905000     -0.66725000       341.21500       2.0750600     0.019327364
       505.99999       289.08899       98737.215       11954.104     -0.40375000       2.3782500      0.50450000       341.73200       2.0951057     0.016769481
       511.00000       289.14850       98729.883       12034.139    -0.083750000       2.7007500     -0.80150000       341.57300       2.1290790     0.015574527
       516.00002       289.17978       98727.758       12031.633     -0.83625010       2.8005000      0.25600000       341.34500       2.0836910     0.016439774
       520.99999       289.20277       98730.257       11954.520      0.47925000       2.5130000     -0.61775000       341.13400       2.1070353     0.017203238
       526.00000       289.21426       98730.244       11901.275       1.0490000       3.5305000     -0.19000000       341.11100       2.0839752     0.016409782
       531.00002       289.23503       98730.109       11816.661      0.51850000       2.5700000      0.26800000       341.55200       2.1142117     0.016128296
       535.99999       289.16008       98730.050       11724.772       1.3005000       3.5525000     -0.19575000       341.10500       2.0916107     0.016697454
       541.00000       289.02412       98730.218       11629.755      0.89775000       2.9812500     -0.66025000       340.89800       2.1062282     0.016493329
       546.00002       288.92617       98730.171       11530.468     0.029500000       1.5472500      0.34125000       342.08200       2.1120397     0.014967066
       550.99999       288.73386       98730.291       11375.491     0.026500000       3.3867500     -0.27950000       341.54600       2.0834976     0.015932673
       556.00000       288.68754       98730.304       11327.112     -0.22900000       3.1785000      0.20250000       340.97100       2.0825631     0.017372906
       561.00001       288.76089       98730.077       11350.118     -0.52450000       2.2482500      0.58350000       341.45600       2.0256204     0.022029501
       565.99999       288.73193       98730.018       11302.895      0.19825000       1.7732500    -0.032000000       342.05800       2.1401814     0.015766479
       572.00000       288.70646       98730.077       11267.958      0.35675000       2.6982500     -0.43750000       341.55600       2.0977682     0.017981291
       577.00001       288.63003       98730.157       11187.134     -0.24575000       1.4100000    0.0022500000       342.08400       2.1267653     0.015340042
       581.99998       288.58684       98730.098       11146.696     -0.43025000       3.1082500      0.85325000       341.26300       2.1064911     0.015513200
       586.99999       288.59986       98730.245       11182.398     0.017000000       1.8180000      0.41600000       341.62600       2.1186912     0.015388317
       592.00001       288.59972       98730.210       11200.338      0.61400000       1.7497500     -0.33450000       341.43100       2.1228299     0.015570033
       596.99998       288.59953       98730.160       11218.241     -0.31975000      0.99700000      0.43600000       342.07700       2.1033103     0.015198910
       601.99999       288.59435       98727.053       11230.406      0.93750010       1.4897500      0.14450000       342.18500       2.1201787     0.011463735
