MIRICO/SHELL project - Processed LDS file generated on
Mon Jul 10 09:21:12 2017
Time stamp for record start
05/11/2017  09:41:54.0000
Nb of points in the record
         879
Beam position index
       2.0000000
Beam angle (degrees)
      -8.6100000
Open Path length (m)
       64.850000
****************** Temporal data record ************************
Elapsedtime_sec Temp_K Press_Pa Humidity_ppmv WindX_m/s WindY_m/s WindZ_m/s Speedofsound_m/s CH4vmr_ppmv CH4vmrerror_ppmv  
      0.00000000       288.64338       98745.235       11492.839      -1.5830000       1.0982500     -0.20350000       341.45500       2.0954059     0.017427071
       5.0000131       288.65234       98740.033       11467.771      0.62050000       2.0227500     -0.32025000       341.69900       2.0730738     0.018809737
       9.9999860       288.71214       98744.785       11480.640      0.48950000       1.9962500     -0.25000000       342.05200       2.0711471     0.018633181
       14.999999       288.70505       98747.807       11442.563     -0.42400000       3.7542500     -0.48550000       341.09300       2.0861738     0.013817996
       20.000012       288.64561       98741.038       11357.934     -0.20800000       3.6997500     -0.67650000       341.10400       2.0895260     0.014747501
       24.999985       288.64441       98747.526       11321.277      0.10175000       2.7557500     -0.85575000       341.11800       2.1032989     0.014240555
       29.999998       288.64379       98771.955       11280.673      0.22900000       3.1007500     -0.16850000       341.05000       2.1099044     0.015195613
       35.000011       288.65271       98775.605       11272.779      0.19800000       2.5322500     -0.28775000       341.00300       2.1062843     0.013408370
       39.999984       288.70332       98774.342       11300.466    -0.064000000       3.0620000     -0.15275000       341.33500       2.0791010     0.014748945
       44.999997       288.71479       98767.103       11315.483      0.25000000       2.5232500     -0.45025000       341.05200       2.0852378     0.015186884
       50.000010       288.68236       98741.354       11328.747      0.61850010       1.6892500     0.032250000       341.42800       2.0973921     0.015890771
       55.000024       288.71969       98742.420       11374.267     -0.31825000       2.4920000     -0.32675000       340.84900       2.0755487     0.018950952
       59.999996       288.80001       98754.808       11436.527      -1.0720000       3.1675000     0.082750010       341.62700       2.0882369     0.018831252
       65.000010       288.82142       98755.890       11498.917     -0.48200000       3.2702500     -0.20575000       341.05700       2.0583479     0.018431959
       70.000023       288.87688       98769.590       11608.199     -0.10450000       2.5175000    -0.084750000       341.48900       2.1038266     0.019579060
       74.999996       288.84164       98765.460       11637.436    -0.072250000       2.3670000    -0.092250000       341.70600       2.1001312     0.019719697
       81.000003       288.69721       98734.923       11630.324       1.6252500       2.7387500      0.15400000       340.78300       2.0903904     0.020389763
       86.000016       288.61369       98751.344       11590.603     -0.11925000       2.9082500     0.024750000       340.84600       2.0754743     0.017629306
       90.999989       288.54310       98755.279       11552.706      -1.4400000       2.4917500      0.16575000       341.18000       2.0779636     0.021206092
       96.000002       288.48552       98771.265       11518.023      0.59025000       2.7300000     -0.27150000       340.73200       2.0871096     0.019774744
       101.00002       288.44485       98775.256       11471.392      0.40900000       2.2707500     -0.21075000       340.66500       2.0796219     0.019150324
       105.99999       288.41657       98769.385       11415.395   -0.0027500000       3.1670000     -0.34375000       341.48200       2.0779325     0.019138522
       111.00000       288.40077       98740.997       11346.385      0.29450000       1.2912500      0.65200000       341.80500       2.0976800     0.016662229
       116.00001       288.37068       98743.981       11276.356     -0.21875000       2.7710000     0.075000000       341.22400       2.0942236     0.016774293
       120.99999       288.35073       98753.610       11188.542     -0.33500000       1.2910000      0.30825000       341.78500       2.0759150     0.014009224
       126.00000       288.31475       98780.144       11134.753      0.41000000       2.2500000     -0.28600000       341.42400       2.0847733     0.017098494
       131.00001       288.29305       98786.702       11107.473     -0.47625000       1.7295000      0.20275000       341.13300       2.0739482     0.018724922
       135.99999       288.28489       98762.312       11125.862     -0.27025000       1.7455000      0.10575000       341.15700       2.0459317     0.016012084
       141.00000       288.29358       98754.211       11145.241     -0.93675010       2.2622500     -0.32600000       341.21000       2.0998082     0.015519446
       146.00001       288.31455       98748.583       11175.482      -1.0110000       1.7280000      0.32900000       341.19300       2.0541401     0.016625139
       150.99999       288.34279       98734.961       11220.921      0.96050010       1.1835000    -0.013750000       341.42800       2.0531671     0.016192251
       156.00000       288.38451       98741.146       11266.649      0.26675000       1.3937500     -0.14475000       342.21800       2.0608785     0.015659559
       161.00001       288.44957       98767.771       11315.098      0.78850000       1.6827500     -0.28575000       341.61600       2.0563455     0.017276275
       165.99998       288.48646       98774.145       11361.843      0.29425000       1.8922500      0.65825000       341.16100       2.0687423     0.020379198
       171.99999       288.55897       98773.030       11485.336      0.82900010       1.1430000     -0.31050000       341.26000       2.0713407     0.018655488
       177.00001       288.68717       98747.578       11732.252     -0.17350000       1.7157500     -0.44000000       341.78100       2.0453070     0.020490498
       182.00002       288.72251       98741.257       11826.328      0.46750000       1.3950000      0.16200000       341.34000       2.0577948     0.021273505
       186.99999       288.71251       98740.658       11885.727    -0.015500000       1.2397500     -0.11350000       341.94300       2.0610936     0.015208812
       192.00000       288.71021       98743.264       11906.837     -0.91575000       2.0977500      0.11400000       341.38900       2.0521296     0.019254257
       197.00002       288.60503       98768.494       11759.393     -0.14675000       2.6715000    -0.030000000       342.01300       2.0569272     0.016584214
       201.99999       288.57913       98774.735       11692.743    -0.017500000       2.7857500     0.062750000       341.90900       2.0399562     0.016106747
       207.00000       288.63382       98770.891       11678.271    -0.026250000       3.0787500      0.51050000       342.09100       2.0497966     0.016869174
       212.00002       288.65381       98766.401       11636.592    -0.034000000       1.9065000     -0.38625000       341.29300       2.0421205     0.010049458
       216.99999       288.69024       98741.971       11593.519       1.3580000       2.9780000     -0.37575000       341.20600       2.1041562    0.0097666047
       222.00000       288.70946       98735.529       11548.314       1.3172500       2.3997500      0.13325000       341.74400       2.0595737     0.012487350
       227.00002       288.69994       98739.497       11483.396      0.35600000       2.2495000     -0.15600000       341.95000       2.0596734    0.0093762625
       231.99999       288.69982       98743.903       11432.651      0.61600010       2.3610000     -0.31325000       341.09100       2.0419072     0.015758829
       237.00000       288.72960       98766.987       11416.982      0.68950000       2.4072500     -0.48250000       340.88800       2.0253167     0.015156742
       242.00002       288.70684       98774.259       11357.181      0.73700000       2.3225000     -0.43175000       341.58400       2.0501249     0.018224919
       246.99999       288.63201       98775.789       11249.573      0.22800000       1.6107500     0.091250000       341.66400       2.0626128     0.016012251
       252.00000       288.59199       98772.215       11188.913      0.23400000       1.9347500     0.031000000       341.79700       2.0593540     0.014540578
       257.00001       288.50506       98751.774       11088.988      0.33275000       2.8755000      0.36875000       342.11300       2.0379543     0.016692373
       263.00002       288.47765       98740.257       11064.879     -0.81075010       2.1017500      0.59950000       341.57300       2.0548987     0.014790843
       267.99999       288.56357       98727.863       11165.755     -0.50175010       2.3077500      0.30100000       341.55300       2.0558397     0.017716569
       273.00001       288.55568       98727.203       11185.587      0.18325000       2.6247500     -0.27400000       341.24700       2.0381612     0.014878730
       278.00002       288.50566       98738.986       11196.636    -0.082500000       2.8070000     -0.53250000       340.65500       2.0413656     0.015970250
       282.99999       288.49543       98747.595       11218.492    -0.060000000       2.4025000      0.20000000       341.18000       2.0753639     0.020170661
       288.00001       288.43385       98768.869       11184.772      0.15800000       2.0742500     -0.13700000       341.07400       2.0503648     0.012860552
       293.00002       288.43542       98774.938       11211.128      0.25200000       1.7050000      0.37975000       341.35800       2.0674694     0.014695788
       297.99999       288.53235       98775.303       11314.155      0.60125010       1.3852500     0.028500000       341.38600       2.0878753     0.013476040
       303.00001       288.56884       98770.391       11364.574      0.29750000       1.6145000     -0.38900000       340.66100       2.0849952     0.013864668
       308.00002       288.58227       98750.871       11411.353      0.35250000       2.1122500      0.10700000       340.94300       2.0497625     0.011980536
       312.99999       288.61240       98740.142       11445.681      0.32825000       1.3822500     -0.15450000       341.08600       2.0513271     0.012999286
       318.00001       288.62481       98724.005       11443.672     0.030000000       1.7855000     -0.22950000       340.79700       2.0588411     0.014254206
       323.00002       288.65804       98721.254       11461.903      0.13875000       1.5675000     -0.12825000       341.15000       2.0978283     0.014136667
       327.99999       288.74618       98727.760       11506.886      0.58075000       1.2395000     -0.11600000       341.83700       2.0757824     0.013910083
       333.00000       288.76849       98736.292       11510.369      0.71100000      0.24625000      0.77075000       342.34800       2.0739065     0.013721535
       338.00002       288.73174       98760.146       11477.534      0.47975000       1.1345000     -0.21900000       341.10300       2.0517308     0.017456962
       342.99999       288.75615       98771.107       11480.080      0.19125000       1.0747500     -0.11325000       341.20300       2.0974636     0.014900515
       348.00000       288.76973       98781.531       11461.061      0.37000000      0.69750010      0.18125000       341.82600       2.1217101     0.013976328
       354.00001       288.81779       98783.440       11483.218      0.51275000      0.67675000      0.24650000       341.92800       2.1247383     0.016319162
       358.99998       288.94082       98772.814       11567.429       1.0937500      0.43800000     0.023750000       341.01900       2.0673893     0.016244165
       364.00000       288.98768       98767.164       11596.336       1.1585000       1.0795000    -0.029250000       341.59900       2.0775293     0.013922694
       369.00001       288.98796       98758.484       11604.912      0.93550000      0.69700000     -0.18775000       341.01100       2.0670107     0.012284884
       374.00002       289.01765       98750.500       11627.039      0.73675000      0.93625000     -0.38725000       340.65700       2.0655323     0.020018731
       379.00000       289.05273       98742.079       11658.208      0.53075000      0.47400000     -0.20625000       340.86600       2.0811402     0.015965038
       384.00001       289.05642       98736.626       11640.652     0.096250010      0.52500000      0.23625000       341.01000       2.0999451     0.018041534
       389.00002       289.06788       98728.353       11614.945     -0.23350000      0.74925010    -0.087000000       341.10200       2.1183205     0.018660869
       394.00000       289.04546       98728.869       11569.419       1.0225000       1.7612500      0.14200000       340.74700       2.0711466     0.016494812
       399.00001       288.94707       98737.776       11441.276      0.55075000       1.1495000     -0.29575000       341.31200       2.0676225     0.014215946
       404.00002       288.92922       98743.411       11401.407      0.22050000       1.1520000     -0.32100000       341.11400       2.0841541     0.016751994
       408.99999       288.95381       98752.111       11404.641      0.53950000       1.5497500    0.0022500000       341.29800       2.1188572     0.015966454
       414.00001       288.94391       98760.051       11399.626    -0.078000000       1.2107500      0.17275000       341.37300       2.0833535     0.017044328
       419.00002       288.98136       98768.284       11444.753     -0.79350010       1.6112500    -0.056250000       341.42800       2.0653042     0.016629177
       423.99999       288.94167       98773.624       11436.407     -0.49275000       1.4522500     -0.43075000       341.22900       2.0943771     0.016717626
       429.00001       288.81711       98780.141       11396.426     -0.51800000       1.3522500      0.15050000       341.70000       2.1166594     0.018138245
       434.00002       288.76325       98782.942       11374.583     -0.95950010      0.97825000     -0.14150000       341.34800       2.0864209     0.019825744
       438.99999       288.70095       98780.277       11337.529     -0.37450000       1.2602500     -0.18825000       341.45900       2.0852499     0.014883240
       445.00000       288.67090       98780.313       11311.701     0.039250000       1.0240000     -0.14600000       341.49700       2.0751997     0.016505852
       450.00001       288.70026       98780.393       11303.608      0.59550010       1.3905000     -0.14625000       342.04800       2.1074128     0.016588374
       454.99999       288.70026       98780.440       11297.737     -0.35300000       1.9110000     -0.50575000       341.32000       2.1303090     0.018422668
       460.00000       288.69063       98782.061       11279.569      0.79625000       1.9295000     -0.16625000       341.42900       2.0926178     0.011640047
       465.00001       288.70886       98778.367       11306.366       1.0447500       1.0910000     0.010500000       341.89900       2.1560924     0.019985793
       469.99999       288.73555       98772.167       11361.371       1.1880000       1.7072500     -0.18475000       341.30900       2.1129296     0.015847534
       475.00000       288.77471       98766.222       11414.804       1.2917500       2.4365000     -0.39675000       340.91900       2.1104860     0.017296215
       480.00001       288.84010       98755.057       11491.722       1.0347500       1.7335000     -0.55975000       341.66000       2.1101199     0.017740950
       484.99998       288.89069       98750.738       11570.301      0.99475000      0.37900000      0.96125010       342.14300       2.1221213     0.015958337
       490.00000       288.94081       98751.632       11645.523      0.17700000       3.0777500      0.29975000       341.88300       2.0887295     0.014705189
       495.00001       288.99082       98746.749       11742.000     -0.82400010       1.1472500      0.19450000       341.46300       2.0964491     0.018688693
       500.00002       289.03964       98741.173       11881.545       1.2162500       2.7965000     0.056000000       341.35200       2.1207280     0.012623580
       505.00000       289.08899       98737.215       11954.104      0.11475000       2.6682500      0.67575000       341.55800       2.1154511     0.014522987
       510.00001       289.14850       98729.883       12034.139      -1.0282500       2.5165000    -0.085000000       341.59000       2.1031728     0.013250045
       515.00002       289.17978       98727.758       12031.633     -0.41375000       2.8795000     -0.18025000       341.68200       2.1025156     0.013324822
       520.00000       289.20277       98730.257       11954.520     0.010250000       2.1587500     0.091000010       340.97800       2.1186257     0.014437106
       525.00001       289.21426       98730.244       11901.275      0.41425000       3.8017500     -0.21050000       341.41200       2.1060680     0.013275462
       530.00002       289.23503       98730.109       11816.661    -0.021750000       2.7617500     -0.52825000       341.47000       2.1164085     0.018601841
       535.99999       289.09366       98730.245       11703.057       1.2232500       3.7817500     -0.43975000       341.00800       2.0729502     0.014248476
       541.00000       289.00551       98730.209       11610.574      0.57800000       2.9612500     -0.69450000       341.12300       2.1299647     0.017242312
       546.00002       288.81524       98730.271       11445.527      0.20200000      0.84875010      0.67375000       342.26900       2.1109522     0.014441138
       550.99999       288.71967       98730.295       11362.352     -0.26975000       3.9450000     -0.45625000       341.28700       2.0937576     0.018064833
       556.00000       288.68567       98730.305       11322.612     -0.10025000       3.3002500      0.12250000       341.11000       2.0826314     0.019166414
       561.00001       288.75610       98730.065       11341.222     -0.11475000       2.6577500      0.77675000       341.82900       2.1099517     0.018106569
       565.99999       288.72463       98730.006       11292.632      0.35675000       1.6792500      0.50575000       342.10900       2.1079900     0.018682517
       571.00000       288.70646       98730.077       11267.958     -0.44450000       2.5235000     -0.55275010       341.55700       2.0970248     0.015289963
       576.00001       288.63003       98730.157       11187.134     -0.33175000       3.1340000     -0.20975000       341.48100       2.1081319     0.020272730
       580.99999       288.58684       98730.098       11146.696     -0.21275000       2.7722500    -0.077750000       341.00600       2.0954486     0.018730010
       586.00000       288.59986       98730.245       11182.398      0.19000000       2.0480000      0.28300000       341.82000       2.0853560     0.021972636
       591.00001       288.59972       98730.210       11200.338      0.95275000       1.7577500     0.064750000       341.52500       2.0725939     0.020598150
       595.99999       288.59953       98730.160       11218.241      0.11950000      0.79950000      0.49575000       342.11500       2.0916941     0.019703365
       601.00000       288.59435       98727.053       11230.406       1.0985000       1.3882500     -0.17150000       341.88400       2.0800412     0.015833481
