MIRICO/SHELL project - Processed LDS file generated on
Mon Jul 10 06:25:38 2017
Time stamp for record start
05/11/2017  09:41:54.0000
Nb of points in the record
         879
Beam position index
       4.0000000
Beam angle (degrees)
    -0.023000000
Open Path length (m)
       98.010000
****************** Temporal data record ************************
Elapsedtime_sec Temp_K Press_Pa Humidity_ppmv WindX_m/s WindY_m/s WindZ_m/s Speedofsound_m/s CH4vmr_ppmv CH4vmrerror_ppmv  
      0.00000000       288.64338       98745.235       11492.839      -1.2267500       1.3147500     -0.25850000       341.42700       2.0796445     0.010318898
       6.0000077       288.70012       98742.367       11496.301     -0.24125000       1.8127500      0.29225000       341.84200       2.0883949    0.0092761982
       11.000021       288.71269       98745.389       11474.665      0.20425000       1.9177500    -0.031000000       341.64600       2.0894314     0.011330979
       15.999994       288.70068       98748.411       11432.494      0.73950000       3.4667500     -0.33700000       341.05900       2.0992446    0.0090009200
       21.000007       288.64438       98741.822       11349.769    0.0012500000       3.5542500    -0.098500010       341.15600       2.0554160    0.0094423617
       26.000020       288.64565       98749.593       11315.193      0.44575000       3.1915000     -0.35800000       341.46600       2.0798628     0.010700825
       30.999993       288.64456       98773.185       11277.385    -0.016250000       3.2175000     0.089250010       341.12200       2.0914664    0.0098593001
       36.000006       288.68502       98775.654       11292.214     -0.15225000       1.8707500      0.17500000       341.44800       2.0600862     0.010535138
       41.000019       288.70663       98773.392       11303.051    -0.054750000       3.4865000     0.019000000       341.21300       2.0808132     0.010073620
       45.999992       288.67023       98746.701       11304.721     0.037750000       1.8730000      0.36950000       341.58000       2.0813827    0.0094537051
       51.000005       288.68786       98740.879       11336.470      0.57525000       2.6195000     0.070500000       341.30400       2.0906022     0.012887972
       56.000018       288.73012       98743.667       11385.451     -0.20125000       2.4462500     -0.64275000       340.92800       2.0867144     0.012799662
       60.999991       288.80526       98755.015       11448.199      0.61725000       2.0307500     0.052000000       341.61600       2.1015944    0.0098467916
       66.000004       288.82426       98756.121       11512.602     -0.25950000       2.6887500     -0.48850000       341.20600       2.0797873     0.010754223
       71.000017       288.87385       98769.466       11616.627    -0.077500000       1.8637500      0.19600000       341.32000       2.0904895    0.0096215475
       75.999990       288.76797       98741.126       11627.085      0.16925000       2.0772500     -0.25475000       341.59200       2.0868271    0.0093076854
       81.000003       288.69721       98734.923       11630.324      0.96475010       2.5615000      0.50450000       340.89400       2.1008153    0.0091823522
       86.000016       288.61369       98751.344       11590.603      0.20250000       2.6700000     -0.69325010       341.02400       2.0578075     0.012721218
       91.999984       288.53046       98756.064       11544.643     -0.69375000       2.2722500     0.075000000       341.23000       2.0719404     0.010879483
       96.999997       288.47640       98772.852       11509.447      0.79725000       2.1277500      0.34800000       341.26700       2.0902322     0.010450152
       102.00001       288.43820       98774.871       11460.942    -0.096250010       2.2060000     -0.48325000       340.87000       2.0678391     0.010606121
       107.00002       288.42472       98744.941       11398.095      -1.2692500       2.8630000     0.015750000       341.20400       2.0576547    0.0095809910
       112.00000       288.39476       98740.890       11332.857     -0.38875000       1.6367500      0.52975000       341.80100       2.0909853     0.012442877
       117.00001       288.36657       98750.390       11235.061     0.084750000       2.4567500      0.32800000       341.11800       2.0884088     0.011571820
       122.00002       288.34677       98754.789       11178.675     -0.61200000       1.3205000      0.54425000       341.97100       2.0920351     0.013057727
       127.00000       288.30939       98782.465       11127.177     -0.76750000       1.0705000      0.53375000       341.68100       2.0755710     0.012100830
       132.00001       288.29023       98786.500       11105.191     -0.67325000       1.0755000      0.73275010       341.70000       2.0713150     0.012145332
       137.00002       288.28565       98760.494       11128.871     -0.78750000       1.2737500      0.43950000       341.22500       2.0729522     0.014288926
       141.99999       288.29679       98752.888       11150.418     -0.25950000       2.3782500     -0.28250000       341.01800       2.0791355     0.013509697
       147.00001       288.31874       98737.316       11188.858    -0.058250000       1.2640000      0.56975000       341.56600       2.0897722     0.013008275
       152.00002       288.35010       98735.387       11229.563       1.3075000       1.1127500      0.35500000       341.06100       2.0611068     0.011014492
       156.99999       288.40948       98761.340       11267.525      0.49375000       1.4737500      0.26850000       341.93500       2.0835245     0.019754650
       162.00001       288.45959       98768.878       11328.428      0.91025010       1.3372500      0.21875000       341.51700       2.0926457     0.014898430
       167.00002       288.49733       98774.710       11378.696     -0.17550000       1.3270000     -0.46300000       341.28000       2.0702421     0.013487493
       171.99999       288.55897       98773.030       11485.336      0.50700000       1.4265000     0.039750000       341.15600       2.0645845     0.010992484
       177.00001       288.68717       98747.578       11732.252      0.12900000       1.7400000    -0.094250000       342.39200       2.0944738     0.012836181
       183.00001       288.72515       98740.728       11838.716       1.0412500       2.4955000      0.43275000       341.94500       2.0575455     0.011614270
       187.99999       288.71402       98740.687       11894.955      -1.0987500      0.89225010     -0.25550000       342.01500       2.0604742    0.0087679362
       193.00000       288.70680       98744.524       11903.548     -0.51450000       1.7080000      0.54000000       341.47600       2.0731867     0.022161499
       198.00001       288.59683       98770.345       11744.251    -0.025250000       2.8032500      0.35700000       341.74800       2.0673269    0.0093527440
       202.99999       288.57849       98775.078       11682.113     -0.20100000       2.1067500     -0.23125000       341.85100       2.0782192     0.012402585
       208.00000       288.63782       98770.395       11670.266    -0.016000000       2.4307500     -0.13450000       342.23200       2.0576653     0.010597225
       213.00001       288.65780       98764.900       11627.759     -0.14975000       2.4882500      0.79600010       341.33700       2.0578135     0.014677916
       217.99998       288.69509       98740.069       11584.905       1.3895000       2.4030000     -0.29475000       341.31000       2.0769727     0.014530559
       223.00000       288.71179       98735.161       11538.637      0.83250000       1.7200000    -0.096250010       341.45900       2.0439042     0.014102952
       228.00001       288.69991       98739.986       11472.752       1.3022500       1.5727500      0.20850000       341.80000       2.0622630     0.011112421
       233.00002       288.69980       98745.372       11423.244      0.17850000       2.6527500     -0.11400000       341.66600       2.0722191     0.012130448
       238.00000       288.72709       98768.943       11406.486      0.55275010       2.3972500     -0.31825000       341.34000       2.0597990     0.016025050
       243.00001       288.69923       98774.962       11343.037      0.66275000       2.2977500      0.11250000       341.47200       2.0825042     0.014064418
       248.00002       288.62400       98775.573       11236.632       1.0947500       1.7402500     0.089250010       341.59100       2.0784164     0.020896950
       253.00000       288.58400       98770.751       11177.991      0.10150000       2.7435000     -0.34225000       341.39600       2.0801340     0.011849775
       258.00001       288.49669       98749.592       11079.982     -0.46325000       2.6145000      0.50975000       341.88400       2.0638465     0.012930278
       263.00002       288.47765       98740.257       11064.879     -0.19350000       1.9215000      0.28200000       341.82900       2.0538500     0.014673564
       267.99999       288.56357       98727.863       11165.755     -0.64425000      0.96875010      0.57225000       341.73900       2.0960637     0.022499640
       274.00000       288.55115       98727.956       11188.105     -0.72550000       2.8562500     -0.10050000       340.82100       2.0859254     0.025497136
       279.00002       288.50362       98740.513       11201.569      0.20025000       2.7127500     -0.24050000       340.58600       2.0726935     0.014612919
       283.99999       288.49338       98749.610       11222.020    -0.011500000       1.0285000      0.58725010       341.81100       2.0805006     0.012611331
       289.00000       288.43112       98770.584       11187.570     -0.33450000       2.0427500     -0.43625000       341.09500       2.0890053     0.010915805
       294.00001       288.44030       98775.400       11220.119     -0.30450000       1.3460000      0.66950010       341.20200       2.0670578    0.0088283462
       298.99999       288.54065       98774.822       11325.084      0.59225000       1.2677500     -0.27200000       341.16200       2.0927065     0.018984207
       304.00000       288.57464       98768.657       11373.385      0.28800000       1.8215000     -0.13575000       340.90500       2.0894391     0.012657929
       309.00001       288.58831       98748.616       11419.340      0.32350000       2.0740000     -0.36025000       340.58700       2.0998234     0.013341536
       313.99999       288.61841       98738.160       11450.861     -0.12300000       1.6312500      0.33475000       341.45500       2.0805303     0.014919446
       319.00000       288.63047       98722.864       11447.017      0.27000000       1.4927500     -0.24675000       341.08400       2.0813746     0.020171143
       324.00001       288.66615       98721.590       11466.000     -0.15050000       1.2730000     -0.10775000       341.02900       2.0833001     0.011686000
       328.99999       288.75264       98729.054       11508.944      0.91025010       1.0920000     -0.48900000       340.72400       2.0728814     0.010757651
       334.00000       288.76996       98738.617       11509.023      0.22175000      0.28100000      0.43300000       341.84900       2.1000291     0.012798076
       339.00001       288.73561       98762.638       11477.629      0.34175000       1.2647500     -0.22250000       340.71000       2.0895081     0.013865341
       343.99998       288.76254       98772.849       11481.210      0.50825000       1.2437500     -0.20350000       340.87400       2.1166066     0.027493916
       349.00000       288.77528       98782.483       11462.370       1.3882500      0.59550010      0.24175000       341.78900       2.0974144     0.010719112
       354.00001       288.81779       98783.440       11483.218      0.70500000      0.58325000     -0.27825000       341.06600       2.1046192     0.016853698
       358.99998       288.94082       98772.814       11567.429       1.3847500      0.81025000      0.36600000       340.80700       2.0955729     0.021356357
       364.99999       288.99410       98765.886       11600.478      0.82850000       1.2857500     0.068000000       340.91200       2.1005522     0.016013785
       370.00000       288.99391       98756.889       11609.521      0.76475010      0.81700000    -0.062750000       341.35600       2.0698119     0.016467273
       375.00002       289.02358       98748.901       11631.188      0.53250000      0.94475010    -0.080750000       341.65100       2.0930155     0.020114522
       379.99999       289.05446       98740.895       11656.410      0.19375000      0.20575000     -0.17475000       340.95500       2.0672790     0.018647258
       385.00000       289.05567       98735.676       11634.572    -0.098500010      0.57200000      0.15975000       340.73600       2.0574503     0.015571087
       390.00002       289.06540       98728.054       11607.757    0.0037500000      0.67175000     0.088500000       341.17400       2.0851778     0.023903720
       394.99999       289.03797       98729.575       11557.449      0.90350000       1.8875000    -0.041750000       341.02000       2.0971060     0.026435881
       400.00000       288.94145       98738.809       11430.837      0.36375000       1.3390000      0.23325000       341.71900       2.0719346     0.022133799
       405.00002       288.92872       98744.680       11397.122      0.26800000       1.6505000     0.012000000       341.14700       2.1043183     0.019287790
       409.99999       288.95182       98753.699       11402.536     0.019250000       1.6672500   -0.0017500000       341.49300       2.0935520     0.020102215
       415.00000       288.94194       98761.639       11400.274      0.44350000       1.2667500     0.075750000       342.17300       2.0892470     0.012521149
       420.00002       288.97649       98769.446       11444.574     -0.19250000       1.4155000     0.011500000       341.22600       2.0667473     0.022209904
       424.99999       288.92913       98774.551       11432.501    -0.054000000       1.4797500     -0.31750000       341.36400       2.0838514     0.019844168
       430.00000       288.80533       98780.900       11392.215     -0.63000010       1.5775000      0.40200000       341.30800       2.0954161     0.023528888
       435.00001       288.75399       98783.204       11369.981     -0.72575000       1.3362500    -0.030250000       341.36700       2.0796241     0.021397941
       439.99999       288.69339       98780.280       11332.500     -0.28150000       1.4252500     -0.10600000       341.44000       2.0679175     0.020387485
       445.00000       288.67090       98780.313       11311.701      0.67300000      0.89750000      0.12150000       342.49300       2.0727521     0.024403873
       450.00001       288.70026       98780.393       11303.608      0.59825000       1.0975000     0.057250000       341.58700       2.0587596    0.0089295684
       456.00002       288.68485       98783.236       11274.514     -0.55350000       2.9270000     -0.15800000       341.33800       2.0571675    0.0083921329
       460.99999       288.69330       98781.520       11283.106      0.55025010       1.6462500     0.095500010       341.62100       2.0779786    0.0098607194
       466.00001       288.71398       98777.331       11314.464      0.85725000       1.1045000    -0.048250000       341.74100       2.0658105     0.010916262
       471.00002       288.74233       98771.084       11371.052       1.5605000       1.3260000   -0.0077500000       341.25100       2.0903705     0.019820521
       475.99999       288.78410       98764.873       11427.005       1.0542500       2.0450000     -0.20900000       341.20400       2.0624446     0.014625396
       481.00001       288.85021       98753.991       11506.869      0.96800010       1.5170000     -0.16175000       341.28400       2.0830293     0.013154664
       486.00002       288.90052       98754.658       11578.339      0.81525000       1.5115000      0.75550000       342.06700       2.0701561     0.012904701
       490.99999       288.95084       98750.753       11663.704      0.56250000       3.5667500     -0.57950000       341.09000       2.0829777     0.012789652
       496.00001       289.00011       98744.329       11807.172     -0.21050000       2.5947500     -0.21450000       341.30800       2.0623387     0.020839278
       501.00002       289.04951       98740.383       11897.877      0.96800010       2.2877500      0.61975000       341.65200       2.0921793     0.024606599
       505.99999       289.09886       98736.422       11965.876    0.0075000000       4.4017500      0.33350000       341.36800       2.0797406     0.019501894
       511.00000       289.15574       98729.256       12037.689     -0.12425000       2.4462500     -0.29300000       341.60900       2.0884862     0.020465872
       516.00002       289.18457       98727.636       12025.047     -0.60600000       2.6337500      0.83600000       341.35400       2.0743244     0.019279967
       520.99999       289.20606       98730.253       11945.212      0.26400000       1.9535000     -0.16675000       341.58400       2.0795168     0.012713571
       526.00000       289.25881       98730.157       11882.172      0.94325010       3.6980000     -0.10850000       340.84800       2.0866863     0.012850510
       531.00002       289.22406       98730.098       11799.159     -0.78150000       2.9892500    -0.098750000       341.33000       2.0752014     0.015045842
       535.99999       289.09366       98730.245       11703.057       1.5532500       2.0155000      0.51350000       341.48600       2.0734780    0.0097737075
       541.00000       289.00551       98730.209       11610.574      0.88875000       2.0952500     -0.19650000       341.16700       2.0804589     0.021825634
       547.00001       288.79120       98730.277       11425.382     -0.21875000       1.5132500      0.15050000       342.05100       2.0542788     0.019958209
       552.00002       288.70795       98730.298       11350.949      0.97325000       4.3295000     -0.13925000       341.37100       2.0698037     0.011258455
       557.00000       288.77224       98730.112       11375.148     0.072250000       2.5362500      0.12100000       341.07000       2.0613226     0.013018659
       562.00001       288.75081       98730.053       11332.051      0.51725000       1.1470000     0.079750000       341.57700       2.0831801     0.020155159
       567.00002       288.72220       98730.113       11288.252     -0.14225000       1.8855000      0.52250000       341.80100       2.0796394     0.021316834
       572.00000       288.70127       98730.070       11262.208     -0.64800000       2.8270000     -0.19100000       341.48700       2.0816341     0.017886326
       577.00001       288.61935       98730.146       11176.277      0.17025000       2.6670000      0.55500000       341.57400       2.0701471     0.012727164
       582.00002       288.58126       98730.086       11142.751     -0.20775000       3.0410000     -0.40850000       341.21700       2.0643464     0.017592571
       586.99999       288.59984       98730.239       11185.989      0.87225000       2.6712500    -0.092000010       341.81300       2.0652495    0.0094847197
       592.00001       288.59969       98730.201       11203.922      0.36000000       1.7987500     -0.57950000       341.63900       2.0663306     0.013130163
       597.00002       288.58603       98722.992       11207.332      0.50225000       1.1685000      0.38900000       342.30600       2.0736167     0.015385450
       601.99999       288.59770       98728.706       11237.511      0.75900010       1.3537500     0.043250000       341.72600       2.0719536     0.018853916
