MIRICO/SHELL project - Processed LDS file generated on
Mon Jul 10 20:20:00 2017
Time stamp for record start
05/11/2017  09:41:55.0000
Nb of points in the record
         879
Beam position index
       5.0000000
Beam angle (degrees)
       8.5390000
Open Path length (m)
       83.010000
****************** Temporal data record ************************
Elapsedtime_sec Temp_K Press_Pa Humidity_ppmv WindX_m/s WindY_m/s WindZ_m/s Speedofsound_m/s CH4vmr_ppmv CH4vmrerror_ppmv  
      0.00000000       288.64419       98743.998       11487.295     -0.53400000       1.7297500      0.36575000       341.57800       1.9955999    0.0077146364
       5.0000131       288.70012       98742.367       11496.301      -1.0137500       1.8995000    -0.070500000       341.63900       2.0319804    0.0083665829
       10.000026       288.71269       98745.389       11474.665   -0.0035000000       1.4437500  -0.00050000000       341.73700       2.0234810    0.0086489627
       14.999999       288.70068       98748.411       11432.494      0.21450000       3.0232500     -0.44600000       340.62700       2.0188307    0.0076435261
       20.000012       288.64438       98741.822       11349.769      0.10800000       3.0067500     -0.59750000       341.07200       2.0278657    0.0084934665
       25.000025       288.64565       98749.593       11315.193     -0.12475000       3.7317500     -0.26675000       341.18700       2.0272674    0.0088038087
       29.999998       288.64456       98773.185       11277.385     -0.27300000       2.9182500    -0.014250000       341.49300       1.9915413    0.0084597086
       35.000011       288.68502       98775.654       11292.214     -0.28625000       2.0150000     0.047000000       341.46700       2.0184950    0.0092607115
       40.000024       288.70663       98773.392       11303.051     -0.14550000       3.5997500     0.037000000       341.25700       2.0142716    0.0078388959
       44.999997       288.67023       98746.701       11304.721      0.48150000       1.7767500     -0.21600000       341.20500       2.0030276    0.0091647611
       50.000010       288.68786       98740.879       11336.470     -0.12375000       1.8615000     -0.27950000       341.27000       1.9931883     0.011126459
       56.000018       288.78137       98754.212       11403.935     -0.58625000       2.2807500     -0.52050000       340.89100       2.0216486    0.0095264796
       60.999991       288.81003       98755.227       11460.274     -0.10100000       1.5742500      0.17400000       341.69600       2.0371064    0.0089597280
       66.000004       288.87395       98767.854       11575.232     -0.42550000       3.2400000     -0.17575000       341.35200       2.0473488    0.0083529363
       71.000017       288.86880       98768.991       11623.767      0.19850000       2.2017500      0.86625000       342.06700       2.0399701    0.0091573945
       75.999990       288.75375       98739.073       11629.505      0.30650000       2.1255000     -0.65500000       341.69000       2.0273193    0.0097222000
       81.000003       288.68315       98734.901       11628.325      0.54200010       2.5210000     0.034000000       340.87900       2.0221991    0.0089642432
       86.000016       288.59858       98752.132       11583.349     -0.72125010       2.2970000     -0.68950000       340.57500       2.0536652    0.0091967698
       90.999989       288.53046       98756.064       11544.643     -0.74125000       2.8922500      0.14400000       341.23100       2.0310743    0.0082171293
       96.000002       288.47640       98772.852       11509.447      0.45400000       2.1170000      0.10775000       341.18800       2.0185353    0.0097455716
       101.00002       288.43820       98774.871       11460.942      0.13250000       2.1945000    -0.050250000       341.19500       2.0225956    0.0079132427
       106.00003       288.42472       98744.941       11398.095      -1.8247500       1.7257500      0.74000000       341.21300       2.0137126    0.0086559652
       111.00000       288.39476       98740.890       11332.857    -0.034250000       2.1882500     0.018500000       341.74900       2.0074247     0.010150043
       116.00001       288.36657       98750.390       11235.061     0.059000000       2.2982500      0.37400000       341.39100       2.0030057    0.0093222460
       121.00003       288.34677       98754.789       11178.675     -0.19800000       1.3672500      0.29950000       342.06500       2.0341678     0.010359268
       126.00000       288.30939       98782.465       11127.177     -0.69800000       1.3360000     0.085750010       341.63900       2.0408691     0.010420943
       131.00001       288.29023       98786.500       11105.191     0.027500000       1.3650000      0.81725000       341.82400       2.0065495     0.011185626
       136.00003       288.28565       98760.494       11128.871     -0.12250000       1.7335000     -0.20775000       341.15100       2.0055316     0.010967725
       141.00000       288.29679       98752.888       11150.418     -0.13575000       1.8237500     -0.62200000       340.92400       2.0159022     0.010689840
       147.00001       288.32397       98736.118       11196.499      0.25700000       1.3482500      0.87675010       341.75000       1.9901427     0.010226444
       152.00002       288.35793       98736.218       11238.456       1.7152500      0.96600000      0.81525000       341.21200       2.0280953    0.0085061030
       156.99999       288.41950       98763.249       11278.558      0.23225000       1.1920000     0.042500000       341.81800       2.0301403    0.0078171076
       162.00001       288.46961       98769.783       11342.335      0.59450000       1.3110000     0.035000000       341.90800       2.0143561    0.0088992529
       167.00002       288.50868       98774.976       11397.035     -0.15625000       1.5535000     -0.16900000       341.23600       1.9977974    0.0090316315
       171.99999       288.57277       98771.792       11511.174      0.66025000       1.2877500     -0.19525000       341.12000       2.0048006    0.0087901655
       177.00001       288.69720       98745.824       11755.330      0.10750000       1.6430000     0.041250000       342.46300       2.0158984    0.0087746829
       182.00002       288.72515       98740.728       11838.716      0.68600000       2.1150000      0.10100000       341.66200       2.0195216    0.0088322886
       186.99999       288.71402       98740.687       11894.955     -0.77075000      0.45450000     0.037000000       342.68700       2.0451163    0.0087514120
       192.00000       288.70680       98744.524       11903.548     -0.18825000       1.7465000      0.26325000       341.67100       2.0175408    0.0082130636
       197.00002       288.59683       98770.345       11744.251     -0.40225000       3.2610000      0.38875000       342.00700       2.0126949    0.0091015740
       201.99999       288.57849       98775.078       11682.113      0.19100000       1.9505000     -0.51700000       341.70100       2.0235003    0.0094810285
       207.00000       288.63782       98770.395       11670.266      0.66875000       1.9755000     -0.47450000       342.65100       2.0074362    0.0099320533
       212.00002       288.65780       98764.900       11627.759      0.58125000       2.1485000     0.034250000       341.32900       1.9822621     0.011455130
       216.99999       288.69509       98740.069       11584.905      0.56950000       2.8395000      0.21500000       341.61700       2.0331011    0.0077252301
       222.00000       288.71179       98735.161       11538.637      0.77200000       1.4242500    -0.037500000       341.50000       2.0212170    0.0080785226
       227.00002       288.69991       98739.986       11472.752      0.97350010       1.8942500      0.20575000       341.54800       2.0306157    0.0091570955
       233.00002       288.69978       98747.038       11414.086      0.39025000       2.5275000      0.15050000       341.50400       2.0029131    0.0081954522
       238.00000       288.72355       98770.648       11395.255      0.61250000       2.5752500     -0.44175000       341.02100       1.9985277     0.010010725
       243.00001       288.69060       98775.414       11328.170      0.88525000       1.9372500    -0.086000000       341.53300       2.0151025    0.0088428698
       248.00002       288.61599       98775.108       11224.096      0.73600010       1.3507500      0.19300000       341.68600       2.0158352    0.0085443918
       253.00000       288.57600       98769.039       11167.471       1.0322500       3.0515000     -0.87225000       341.31900       2.0175460    0.0092290878
       258.00001       288.48985       98747.515       11072.975     -0.73175000       2.6097500      0.35775000       342.28400       1.9967850    0.0099188593
       263.00002       288.47840       98738.706       11067.833     -0.16900000       1.9520000      0.66300000       342.16100       2.0210204    0.0082726126
       267.99999       288.56396       98727.141       11170.684     -0.57175000       2.4617500     -0.36925000       341.30800       1.9832949    0.0087460660
       273.00001       288.55115       98727.956       11188.105     -0.34650000       2.5430000     -0.40675000       341.14600       2.0116310    0.0086610626
       278.00002       288.50362       98740.513       11201.569      0.15275000       2.9987500     -0.29300000       340.58600       2.0235642    0.0089118280
       282.99999       288.49338       98749.610       11222.020     -0.38425000       1.1370000      0.12925000       341.14300       2.0053794     0.010300727
       288.00001       288.43112       98770.584       11187.570     -0.50775000       2.1935000      0.26975000       341.33300       2.0390233    0.0076919281
       293.00002       288.44030       98775.400       11220.119    0.0040000000       1.3760000      0.40725000       341.12000       2.0192510    0.0090684615
       297.99999       288.54065       98774.822       11325.084      0.91950010       1.0645000     -0.10750000       341.52700       2.0064908    0.0099738467
       303.00001       288.57464       98768.657       11373.385      0.48250000       1.4747500     -0.47175000       340.65800       2.0109724     0.010816895
       308.00002       288.58831       98748.616       11419.340      0.35275000       2.0797500     -0.36200000       340.72500       2.0194840     0.011530329
       312.99999       288.61841       98738.160       11450.861     -0.21100000       1.8992500     -0.17450000       340.63800       2.0048978    0.0080858162
       318.00001       288.63047       98722.864       11447.017      0.31400000       1.6165000     -0.10150000       341.01600       2.0306573     0.010818723
       324.00001       288.67476       98722.222       11470.248    0.0060000000       1.1345000     -0.27075000       341.10600       2.0395223    0.0087784606
       329.00003       288.75810       98730.554       11510.322      0.79925010       1.1067500     -0.25275000       341.22400       2.0304147    0.0095199048
       334.00000       288.77042       98741.148       11506.997      0.38475000      0.12975000      0.53025000       342.05100       2.0345923    0.0093402432
       339.00001       288.73999       98764.980       11477.931      0.30950000       1.2600000     -0.32775000       340.74700       2.0069057     0.010436785
       344.00003       288.76944       98774.441       11482.546      0.40875000       1.1262500     -0.22075000       340.84800       2.0317428     0.010131114
       349.00000       288.78182       98783.181       11464.631      0.85425000       1.1720000     0.065500010       341.64000       2.0589076    0.0089316011
       354.00001       288.82924       98782.872       11490.256      0.90325000      0.56900000    -0.057000000       341.60800       2.0084811    0.0095769623
       359.00002       288.95216       98771.783       11574.302       1.0472500      0.99375000      0.35075000       341.39600       1.9921347     0.010095776
       364.00000       288.99410       98765.886       11600.478      0.85850010       1.1752500     0.083500010       340.81300       2.0307695    0.0091163675
       369.00001       288.99391       98756.889       11609.521      0.74750010      0.80250000     -0.21250000       341.36200       2.0230414    0.0084777288
       374.00002       289.02358       98748.901       11631.188      0.54700010      0.73825000     -0.26375000       341.19500       2.0435150    0.0081698783
       379.00000       289.05446       98740.895       11656.410      0.12100000      0.10100000     0.019750000       341.13500       2.0147218    0.0088086864
       384.00001       289.05567       98735.676       11634.572    -0.062500000      0.52450000      0.14425000       340.75200       2.0255600    0.0090777215
       389.00002       289.06540       98728.054       11607.757     0.016000000      0.76250000      0.26200000       341.08800       2.0324673    0.0085364230
       394.00000       289.03797       98729.575       11557.449      0.90075000       2.1290000     -0.14000000       340.71400       2.0159016    0.0083237825
       399.00001       288.94145       98738.809       11430.837      0.11875000       1.2970000      0.53250000       341.98200       2.0402006    0.0093264224
       404.00002       288.92872       98744.680       11397.122      0.52475010       1.6020000    -0.033500000       341.22000       2.0023273    0.0094038886
       408.99999       288.95182       98753.699       11402.536     -0.29125000       1.6242500     -0.37550000       341.38400       2.0191895    0.0094418208
       415.00000       288.93997       98763.228       11401.472      0.53900000       1.4350000    -0.014250000       342.30400       2.0077997    0.0088652377
       420.00002       288.97008       98770.562       11443.651     -0.39000000       1.5925000    -0.082500000       341.49700       2.0299593    0.0088098605
       425.00003       288.91505       98775.430       11427.848    -0.074000000       1.9850000      0.17050000       341.33600       2.0298110     0.010442498
       430.00000       288.79406       98781.560       11387.925     -0.34400000       1.4722500      0.18900000       341.77600       2.0467753     0.010231281
       435.00001       288.72972       98780.274       11354.355    -0.066000000       1.3652500     0.023250000       341.62300       2.0225973    0.0088561974
       440.00003       288.68686       98780.285       11327.761     -0.34250000       1.5665000   -0.0085000000       341.47600       1.9849140    0.0085605975
       445.00000       288.70026       98780.366       11311.544      0.72625010      0.67400000     0.027250000       342.45900       2.0260616    0.0090829462
       450.00001       288.70026       98780.401       11302.074      0.73950000       1.3882500      0.23975000       342.13900       1.9846701    0.0095304572
       455.00003       288.68485       98783.236       11274.514       1.0242500       2.4595000     -0.52275000       341.42400       2.0213539     0.010919426
       460.00000       288.69330       98781.520       11283.106      0.52250000       1.4380000     -0.76525000       341.73800       2.0256578    0.0092529078
       465.00001       288.71398       98777.331       11314.464       1.3085000       1.1612500      0.18275000       342.26800       2.0646423     0.010431950
       470.00003       288.74233       98771.084       11371.052       1.4822500       1.5867500     -0.32850000       341.27900       2.0313116    0.0095836209
       475.00000       288.78410       98764.873       11427.005       1.0705000       2.0645000     -0.38550000       341.08800       2.0289202    0.0089622971
       480.00001       288.85021       98753.991       11506.869       1.3530000       1.6552500      0.13400000       341.33800       2.0212041    0.0080672325
       485.00002       288.90052       98754.658       11578.339      0.98600010       1.0722500      0.12150000       342.02400       2.0030102    0.0090962976
       490.00000       288.95084       98750.753       11663.704      0.59425000       3.6700000     -0.63100000       341.04900       2.0287473    0.0093095045
       495.00001       289.00011       98744.329       11807.172     0.043250000       3.6135000     -0.50750010       341.07600       2.0045360     0.010505092
       500.00002       289.04951       98740.383       11897.877   -0.0025000000       2.4922500      0.15650000       341.66000       2.0194357    0.0091228484
       505.99999       289.12386       98732.372       12011.379     -0.12500000       3.1600000     -0.13200000       341.30000       2.0191485     0.010754734
       511.00000       289.16248       98728.730       12039.215      0.13850000       1.9352500     0.045500000       341.46600       2.0335275     0.011067316
       516.00002       289.18992       98730.272       11978.408     -0.21700000       3.3862500     -0.50925000       341.49400       2.0420423    0.0096933644
       520.99999       289.20886       98730.250       11935.233    -0.038500000       2.9712500      0.10475000       341.33000       2.0338867    0.0090994844
       526.00000       289.25588       98730.145       11866.479      0.93725000       3.8755000     -0.34825000       340.92900       2.0195726     0.011632096
       531.00002       289.21108       98730.086       11781.215    -0.028500000       2.7167500     -0.52750000       341.23900       2.0186062    0.0099343522
       535.99999       289.07701       98730.239       11685.249       1.4552500       3.6337500     -0.26000000       341.10300       2.0432116     0.011047888
       541.00000       288.98641       98730.201       11591.052      0.97025010       1.5077500     0.062500000       341.19200       2.0409893     0.012312799
       546.00002       288.79120       98730.277       11425.382     -0.31325000       2.4012500     -0.65250000       341.32600       2.0287998    0.0098937216
       551.00003       288.70795       98730.298       11350.949     -0.10825000       3.0602500     -0.95900010       341.57200       2.0286377     0.010715566
       556.00000       288.77224       98730.112       11375.148      0.17925000       2.1560000     -0.24850000       340.99300       2.0414228    0.0086301498
       561.00001       288.75081       98730.053       11332.051      0.27475000       1.8642500     0.088250000       341.67500       2.0289315    0.0094283069
       566.00003       288.72220       98730.113       11288.252     -0.46925000       2.1755000     -0.33925000       341.41800       2.0107096    0.0095828159
       571.00000       288.70127       98730.070       11262.208     -0.10375000       2.5380000     -0.11925000       341.55000       2.0354216     0.010595559
       576.00001       288.61935       98730.146       11176.277     -0.16550000       1.4662500      0.28200000       341.81700       2.0284161    0.0091837306
       581.00003       288.58126       98730.086       11142.751     -0.41675000       2.5690000     -0.29825000       341.10200       2.0356693     0.010321705
       586.00000       288.59984       98730.239       11185.989      0.58625000       2.2887500    0.0037500000       341.06000       2.0222842    0.0087169858
       591.00001       288.59969       98730.201       11203.922      0.46825000       1.5350000     -0.35125000       341.58700       2.0424257     0.010427516
       597.00002       288.58735       98723.625       11212.300      0.67425000       1.0100000      0.55475000       342.64200       2.0485707     0.010136751
       601.99999       288.60157       98730.614       11245.152      0.65975000       1.6150000     0.081750010       341.72800       2.0287120    0.0092637584
