MIRICO/SHELL project - Processed LDS file generated on
Mon Jul 10 20:29:07 2017
Time stamp for record start
05/11/2017  09:41:55.0000
Nb of points in the record
         879
Beam position index
       6.0000000
Beam angle (degrees)
       13.609000
Open Path length (m)
       58.300000
****************** Temporal data record ************************
Elapsedtime_sec Temp_K Press_Pa Humidity_ppmv WindX_m/s WindY_m/s WindZ_m/s Speedofsound_m/s CH4vmr_ppmv CH4vmrerror_ppmv  
      0.00000000       288.64419       98743.998       11487.295     -0.49075000       1.7512500    -0.033500000       341.36400       2.0634386     0.013681601
       5.0000131       288.70012       98742.367       11496.301     -0.20675000       1.5757500     -0.10300000       341.82200       2.0721403     0.011315277
       10.000026       288.71269       98745.389       11474.665     -0.31500000       2.1135000     -0.36100000       341.75000       2.1033994    0.0092000440
       15.999994       288.65229       98740.227       11384.943      0.21400000       2.8420000     -0.29800000       340.62200       2.0910750    0.0086258198
       21.000007       288.64364       98742.863       11342.021      0.40050000       2.6785000     -0.36900000       341.24500       2.0915263    0.0098224093
       26.000020       288.64449       98766.765       11295.666      0.22750000       3.8342500     -0.24225000       340.91000       2.0979201    0.0094829827
       30.999993       288.64584       98774.165       11274.952    -0.098000000       2.5647500   -0.0037500000       341.36400       2.0998414    0.0085797268
       36.000006       288.69035       98775.699       11293.965    -0.032500000       3.2227500    -0.050750000       341.20500       2.1093042    0.0093487909
       41.000019       288.70943       98772.193       11305.845     -0.26850000       2.6932500      0.36175000       341.15300       2.1009161     0.010746012
       45.999992       288.67179       98744.848       11309.700       1.4200000       1.6110000     0.057000000       341.79100       2.0557301     0.010580250
       51.000005       288.69434       98740.747       11344.882      0.75125000       2.7977500     -0.61125000       340.77400       2.0666010     0.013409236
       56.000018       288.78137       98754.212       11403.935     -0.53275000       3.1645000     -0.46775000       340.89800       2.0744463     0.011719667
       60.999991       288.81003       98755.227       11460.274     -0.33425000       1.9320000      0.26025000       341.57700       2.0900915     0.012216825
       66.000004       288.87395       98767.854       11575.232      0.25425000       3.3002500     -0.74075000       341.18300       2.0778263     0.010388834
       71.000017       288.86880       98768.991       11623.767      0.35775000       1.8192500      0.59600000       342.08300       2.0990598    0.0097819705
       75.999990       288.75375       98739.073       11629.505      0.28725000       1.4835000      0.59100000       342.25700       2.0671060     0.014688179
       81.000003       288.68315       98734.901       11628.325       1.6205000       2.8362500      0.21550000       341.24500       2.1099757     0.011077222
       86.000016       288.59858       98752.132       11583.349     -0.41025000       2.2070000     -0.98175010       340.70900       2.0748349     0.010824571
       90.999989       288.53046       98756.064       11544.643      -1.4122500       2.4852500      0.37350000       341.27400       2.1047456    0.0097976127
       96.000002       288.47640       98772.852       11509.447      0.50400000       2.1355000     -0.44350000       341.22300       2.0882717     0.011519896
       101.00002       288.43820       98774.871       11460.942     -0.28475000       2.4037500     -0.10250000       340.93400       2.0966023     0.011129356
       107.00002       288.41874       98743.427       11385.529      -1.2340000       2.7402500     -0.46850000       341.26500       2.0543042     0.012076608
       112.00000       288.38875       98741.135       11319.090     -0.10875000       1.9730000     -0.30400000       341.37300       2.0531476     0.015086550
       117.00001       288.36261       98750.971       11222.372      0.32825000       2.3032500     0.063750010       341.25000       2.0898042     0.011534761
       122.00002       288.34282       98756.117       11169.513     0.024500000       1.8557500     -0.19525000       341.51700       2.0778881     0.012165831
       127.00000       288.30454       98784.281       11120.663     -0.63000010       1.1405000     -0.31950000       341.78300       2.0589556     0.014717683
       132.00001       288.28793       98785.793       11103.965     -0.32125000       1.9387500     -0.14125000       341.16400       2.0384281     0.012910518
       137.00002       288.28689       98758.775       11132.314     -0.25925000       1.9237500     -0.14325000       341.04200       2.0700066     0.012937726
       141.99999       288.30049       98751.663       11156.030     -0.37775000       1.8972500      0.35975000       341.15900       2.0556081     0.016587509
       147.00001       288.32397       98736.118       11196.499      0.46175000       2.1477500      0.15800000       341.79300       2.0805626     0.013405832
       152.00002       288.35793       98736.218       11238.456       1.4125000       1.3760000      0.42975000       341.29900       2.0585100     0.011759933
       156.99999       288.41950       98763.249       11278.558      0.29500000       1.6017500     -0.15450000       341.08300       2.0178117     0.014934922
       162.00001       288.46961       98769.783       11342.335      0.47525000       1.8240000    -0.093750010       341.83600       2.1005821     0.011623145
       167.00002       288.50868       98774.976       11397.035     0.010500000       1.6065000     -0.35775000       341.30800       2.0554501     0.014243335
       171.99999       288.57277       98771.792       11511.174      0.51200000       1.3797500     -0.61075000       341.25700       2.0555011     0.013796682
       177.00001       288.69720       98745.824       11755.330      0.62925000       1.7645000     -0.13300000       341.84300       2.0619248     0.010552938
       182.00002       288.72515       98740.728       11838.716      0.64850000       2.3837500      0.32200000       341.60500       2.0671394     0.010688336
       186.99999       288.71402       98740.687       11894.955     -0.59375000      0.90225010      0.10800000       342.25900       2.0726987     0.013004382
       192.00000       288.70680       98744.524       11903.548     -0.98700000       2.2250000     -0.18100000       342.13800       2.0551114     0.015193168
       198.00001       288.59013       98771.895       11730.018    -0.043250000       2.1725000     -0.49400000       341.97700       2.0679356     0.010419533
       203.00003       288.57937       98775.119       11672.376      0.49600000       1.8925000     -0.56250000       341.50300       2.0628894     0.013448483
       208.00000       288.64182       98769.698       11662.096      0.21250000       2.9975000      0.14600000       342.35200       2.0479942     0.012666943
       213.00001       288.66179       98763.197       11618.759      0.37775000       2.8535000      0.83225010       341.34000       2.0286348     0.013910599
       218.00002       288.69944       98738.474       11576.077      0.19850000       2.5842500      0.31450000       341.41200       2.0835263     0.013595975
       223.00000       288.71362       98735.100       11528.751      0.80275010       1.5627500     0.072500010       341.85700       2.0570445     0.011607743
       228.00001       288.69989       98740.671       11462.355      0.47850000       1.7870000      0.20125000       341.59900       2.0483793     0.014773809
       233.00002       288.69978       98747.038       11414.086   -0.0087500000       2.4375000      0.34250000       341.54400       2.0204865     0.014420979
       238.00000       288.72355       98770.648       11395.255      0.54675000       2.4955000     -0.63550000       341.47700       2.0689487     0.013680321
       243.00001       288.69060       98775.414       11328.170       1.2405000       2.4872500     -0.28950000       341.23400       2.0628218     0.012416465
       248.00002       288.61599       98775.108       11224.096      0.66175000       1.4840000      0.43650000       341.80600       2.0333293     0.013315851
       253.00000       288.57600       98769.039       11167.471      0.23925000       2.6265000     -0.27375000       341.38800       2.0564694     0.016588206
       258.00001       288.48985       98747.515       11072.975      -1.1232500       2.1315000     -0.20125000       341.09200       2.0403573     0.015623872
       263.00002       288.47840       98738.706       11067.833      0.29150000       3.0832500     -0.44475000       340.68400       2.0307593     0.014567699
       267.99999       288.56396       98727.141       11170.684     0.032750000       3.0987500     -0.56375000       340.98600       2.0441560     0.012899367
       273.00001       288.55115       98727.956       11188.105     -0.27075000       2.1822500     -0.22525000       341.34400       2.0692392     0.015557074
       278.00002       288.50362       98740.513       11201.569      0.18350000       2.8240000     -0.26050000       340.78100       2.0617723     0.021276189
       282.99999       288.49338       98749.610       11222.020     -0.11975000       1.3705000     0.060250000       341.16000       2.0383953     0.012854919
       289.00000       288.42990       98772.049       11191.603     -0.26450000       1.6440000      0.34850000       341.51000       2.0383018     0.015385928
       294.00001       288.44672       98775.612       11230.354      0.13425000       1.3515000     0.018500000       341.23300       2.1250799     0.011675040
       299.00003       288.54845       98774.090       11335.592      0.82650010      0.73550000     0.074000000       341.59200       2.0881805    0.0097018866
       304.00000       288.57993       98766.672       11381.770      0.39250000       1.6175000     -0.28150000       341.12000       2.0745945     0.011024032
       309.00001       288.59434       98746.416       11426.767      0.42750000       1.9675000     -0.36150000       340.89400       2.0573920     0.016328506
       314.00003       288.62442       98736.232       11455.478     -0.10350000       2.0667500    -0.026000000       340.66800       2.0584768     0.013523121
       319.00000       288.63663       98722.018       11450.513      0.22675000       1.4922500     0.095000010       341.07900       2.0646444     0.025120117
       324.00001       288.67476       98722.222       11470.248      0.26775000       1.0072500     -0.23975000       341.23200       2.0634064     0.015883158
       329.00003       288.75810       98730.554       11510.322      0.75600000      0.80825000     -0.30500000       340.96100       2.1022003     0.014976517
       334.00000       288.77042       98741.148       11506.997      0.62775000      0.47575000      0.61525010       341.55700       2.0420533     0.014844940
       339.00001       288.73999       98764.980       11477.931      0.54650000       1.2722500     -0.17600000       340.63500       2.0767098     0.023195330
       344.00003       288.76944       98774.441       11482.546      0.50150000       1.1257500     -0.21125000       340.69400       2.0827972     0.014768633
       349.00000       288.78182       98783.181       11464.631      0.76775000      0.89150010      0.24425000       341.76900       2.0661812     0.019611642
       354.00001       288.82924       98782.872       11490.256       1.1877500      0.39800000     0.072250000       341.57800       2.0688040     0.029854425
       359.00002       288.95216       98771.783       11574.302       1.1227500       1.0577500     -0.26950000       341.29100       2.0588701     0.025210099
       364.00000       288.99410       98765.886       11600.478       1.2090000       1.2945000     -0.23775000       341.10500       2.0743971     0.016752702
       369.00001       288.99391       98756.889       11609.521      0.49775000      0.93525000     -0.28675000       341.24500       2.0995331     0.012206585
       375.00002       289.02951       98747.302       11635.244      0.65850000      0.59800000     -0.19100000       341.28100       2.0639829     0.011816419
       379.99999       289.05569       98739.758       11653.756     0.015750000      0.16950000    -0.023250000       341.10000       2.0721655     0.012104025
       385.00000       289.05442       98734.772       11627.636     -0.10425000      0.54550000      0.12875000       340.78900       2.1299332     0.011152013
       390.00002       289.06191       98727.956       11599.609      0.32375000      0.67175000      0.19200000       341.23800       2.0967495     0.011041926
       394.99999       288.97005       98734.962       11480.027      0.86700000       1.9877500    -0.093500000       340.89700       2.0751889     0.013533218
       400.00000       288.93686       98739.888       11421.632     0.087500010       1.4685000    -0.046250000       341.66500       2.0752859     0.010542883
       405.00002       288.95977       98747.346       11414.263      0.86775000       1.8930000    -0.054250000       340.91600       2.0753924     0.013158179
       410.00003       288.94984       98755.287       11400.982      0.33300000       1.4962500    -0.047500000       341.23300       2.0889085     0.012092496
       415.00000       288.93997       98763.228       11401.472      0.58450000       1.2807500      0.14875000       342.40600       2.0706851     0.013517804
       420.00002       288.97008       98770.562       11443.651     -0.11700000       1.6812500      0.28550000       341.76400       2.0766337     0.026036410
       425.00003       288.91505       98775.430       11427.848    -0.057250000       1.6155000     0.050250000       341.34300       2.0748385     0.013187123
       430.00000       288.79406       98781.560       11387.925     -0.49650000       1.5440000     -0.12550000       341.13800       2.1321651     0.013131955
       435.00001       288.72972       98780.274       11354.355     -0.48700000       1.3037500    -0.082000000       341.37100       2.0934629     0.013400825
       440.00003       288.68686       98780.285       11327.761     -0.50850000       1.2577500    -0.071500000       341.60800       2.0848676     0.015305004
       445.00000       288.70026       98780.366       11311.544      0.22250000      0.89225010     0.059500000       342.21200       2.0336995     0.018732111
       450.00001       288.70026       98780.401       11302.074      0.22200000       1.5330000     -0.40675000       341.97800       2.0671923     0.014149481
       455.00003       288.68485       98783.236       11274.514      0.70100000       1.7990000     -0.39325000       341.59000       2.0617123     0.011286216
       460.00000       288.69330       98781.520       11283.106      0.67825000       1.5467500     -0.38050000       341.93300       2.1006139     0.011898140
       466.00001       288.71832       98775.093       11335.327       1.0085000      0.95275000      0.15150000       341.95300       2.0693726     0.012257947
       471.00002       288.74964       98769.949       11381.235       1.7300000       2.0782500    -0.014250000       341.55900       2.0902711     0.013506685
       475.99999       288.80980       98758.862       11447.982       1.1792500       1.9075000     -0.41000000       340.99900       2.0588532     0.013648340
       481.00001       288.86032       98753.026       11522.299       1.5312500       1.4997500     0.016250000       341.57300       2.0696227     0.012270220
       486.00002       288.91061       98753.975       11594.306      0.95500000       1.3432500      0.15575000       342.10800       2.0620749     0.025863053
       490.99999       288.96086       98749.826       11682.441    -0.031000000       3.0285000     -0.48175000       341.19100       2.0540449     0.015169107
       496.00001       289.01000       98743.541       11827.118      0.81200000       2.7257500     -0.84025000       341.33200       2.0882770     0.016208300
       501.00002       289.05939       98739.592       11913.301      0.62050000       2.7730000   -0.0072500000       341.35500       2.0855238     0.016714208
       505.99999       289.12386       98732.372       12011.379    0.0020000000       2.9405000    -0.083750000       341.34000       2.0467700     0.017501761
       511.00000       289.16248       98728.730       12039.215     -0.83150010       2.5842500      0.11450000       341.59100       2.0480844     0.016887062
       516.00002       289.18992       98730.272       11978.408      0.18325000       1.9437500     0.049750000       341.58500       2.1047197     0.013268796
       520.99999       289.20886       98730.250       11935.233     -0.28050000       3.4637500     -0.41200000       340.88600       2.0941560     0.013020015
       526.00000       289.25588       98730.145       11866.479      0.93600000       3.9392500     -0.33475000       341.09200       2.1097616     0.014769799
       531.00002       289.21108       98730.086       11781.215      0.36600000       2.5820000      0.35375000       341.26700       2.0815080     0.018578906
       535.99999       289.07701       98730.239       11685.249       1.1912500       3.4565000    -0.040000000       341.15100       2.1078101     0.014809519
       541.00000       288.98641       98730.201       11591.052      0.23750000       1.7965000     -0.79000000       341.44100       2.0627117     0.021811355
       546.00002       288.79120       98730.277       11425.382     -0.38950000       1.8980000     -0.44000000       341.56800       2.0810476     0.013739273
       551.00003       288.70795       98730.298       11350.949     -0.18400000       2.3982500     -0.79000000       341.39500       2.0809350     0.017677919
       557.00000       288.76896       98730.101       11367.082    -0.087750000       2.3592500     0.084500010       341.23600       2.0853846     0.020676413
       562.00001       288.74502       98730.041       11322.606    -0.092000010       1.3555000     0.057500000       341.46900       2.0756462     0.015030981
       567.00002       288.71901       98730.103       11283.585     -0.54425000       2.8975000     -0.44800000       341.23800       2.0986112     0.012076798
       572.00000       288.69559       98730.065       11256.188     -0.19250000       1.9767500     -0.12825000       341.38300       2.0757018     0.013456419
       577.00001       288.60970       98730.134       11166.807     -0.23750000       1.9915000      0.14800000       342.31200       2.0605679     0.021989892
       582.00002       288.57670       98730.074       11140.182     -0.49125000       2.1810000     -0.22875000       341.31300       2.0942045     0.021984966
       586.99999       288.59981       98730.233       11189.578      0.58900000       2.3265000     -0.27225000       341.13900       2.0351017     0.014187739
       592.00001       288.59965       98730.192       11207.504      0.13425000      0.98925010   -0.0052500000       341.62800       2.0722557     0.014253392
       597.00002       288.58735       98723.625       11212.300     0.024750000       2.3957500     -0.36025000       341.32300       2.0822381     0.015356149
       601.99999       288.60157       98730.614       11245.152      0.31825000       1.4125000     0.030000000       341.88800       2.0731701     0.015565605
