MIRICO/SHELL project - Processed LDS file generated on
Mon Jul 10 19:37:19 2017
Time stamp for record start
05/11/2017  09:41:56.0000
Nb of points in the record
         879
Beam position index
       7.0000000
Beam angle (degrees)
       19.300000
Open Path length (m)
       33.730000
****************** Temporal data record ************************
Elapsedtime_sec Temp_K Press_Pa Humidity_ppmv WindX_m/s WindY_m/s WindZ_m/s Speedofsound_m/s CH4vmr_ppmv CH4vmrerror_ppmv  
      0.00000000       288.64549       98742.859       11482.016     -0.26875000       1.9560000    -0.072500010       341.68400       2.1038695     0.026579409
       5.0000131       288.70460       98742.971       11493.623     -0.41375000       1.3327500     -0.11125000       341.49800       2.1504125     0.019575107
       10.000026       288.71226       98745.994       11467.869     -0.26775000       1.9625000      0.37125000       341.92700       2.1357026     0.022294042
       14.999999       288.65229       98740.227       11384.943      0.13600000       3.0280000     -0.13025000       341.08800       2.1507247     0.025804851
       20.000012       288.64364       98742.863       11342.021    -0.085750010       2.8035000    -0.024750000       341.37300       2.1199896     0.022690850
       25.000025       288.64449       98766.765       11295.666    -0.020000000       3.6372500     -0.57375000       340.98900       2.1309400     0.020087974
       29.999998       288.64584       98774.165       11274.952     0.029500000       2.8612500     0.047250000       341.46900       2.1572818     0.018758777
       35.000011       288.69035       98775.699       11293.965      0.48825000       2.9125000     -0.24150000       341.34700       2.1689026     0.020139296
       40.000024       288.70943       98772.193       11305.845     -0.13500000       2.3540000     -0.28625000       341.13300       2.1202153     0.018898665
       44.999997       288.67179       98744.848       11309.700       1.5342500       2.5530000      0.23700000       341.01200       2.1890850     0.017856138
       50.000010       288.69434       98740.747       11344.882      0.30300000       2.4955000     -0.56950000       340.97000       2.2313958     0.021989270
       55.000024       288.78137       98754.212       11403.935     -0.17450000       2.3935000    0.0045000000       340.83600       2.1371625     0.017912699
       59.999996       288.81003       98755.227       11460.274     -0.50225000       2.1107500      0.10250000       341.75600       2.1456070     0.023077477
       66.000004       288.87693       98768.784       11587.498     -0.44150000       2.2945000    -0.023500000       341.39100       2.1643748     0.020428786
       71.000017       288.86176       98768.165       11629.617     -0.33650000       1.6757500      0.49800000       341.99800       2.2079364     0.018951504
       76.000030       288.73957       98737.426       11631.037      0.24175000       1.8472500      0.33000000       341.46100       2.1182087     0.018610575
       81.000003       288.66913       98735.286       11625.450       1.5402500       1.3597500       1.5847500       341.41400       2.1621477     0.018957800
       86.000016       288.58397       98752.920       11575.931     -0.19075000       2.4810000     -0.80900000       340.86100       2.1957723     0.016589425
       91.000029       288.51832       98756.849       11536.420     -0.14725000       2.1665000     -0.86150000       341.26500       2.1469763     0.017929269
       96.000002       288.46777       98774.045       11500.496     -0.43025000       2.2245000      0.33200000       341.49200       2.1069889     0.017992233
       101.00002       288.43205       98774.091       11450.118    -0.063000000       2.4260000    -0.091750000       340.93300       2.0931911     0.020360820
       106.00003       288.41874       98743.427       11385.529     -0.91300000       3.0532500     -0.24000000       341.34300       2.1977356     0.015050456
       111.00000       288.38875       98741.135       11319.090     0.017000000       1.6085000     0.052250000       341.41800       2.1200011     0.022131642
       116.00001       288.36261       98750.971       11222.372      0.37175000       1.9912500     -0.47775000       340.96200       2.0864340     0.019328339
       121.00003       288.34282       98756.117       11169.513     -0.42175000       1.6490000    0.0037500000       341.13300       2.1143426     0.021099367
       126.00000       288.30454       98784.281       11120.663      -1.6772500       1.2475000     -0.22175000       340.89700       2.0766527     0.020518372
       131.00001       288.28793       98785.793       11103.965     -0.24600000       2.0340000     -0.34450000       340.89800       2.1416019     0.024170692
       136.00003       288.28689       98758.775       11132.314     -0.35175000       1.6815000     0.098500010       341.55100       2.1206133     0.016854892
       141.00000       288.30049       98751.663       11156.030      -1.1622500       1.7130000     0.095250000       341.38500       2.0821674     0.020635669
       146.00001       288.32397       98736.118       11196.499      0.18425000       2.0015000      0.61725000       341.37100       2.1555928     0.020748450
       151.00003       288.35793       98736.218       11238.456       1.1002500       1.3755000      0.70450000       341.58400       2.1321774     0.018549866
       157.00003       288.42952       98764.957       11290.164      0.40975000       1.4160000      0.13500000       340.97900       2.0277952     0.018224589
       162.00001       288.47964       98770.488       11356.820      0.54475000       1.4795000    -0.086000000       341.77900       2.0362858     0.023764658
       167.00002       288.52052       98774.940       11416.863      0.35625000       1.5787500     -0.54000000       341.50900       1.9492543     0.027497529
       172.00003       288.58704       98770.254       11538.528      0.71250000       1.6445000    -0.086250010       341.50300       2.1194410     0.024902874
       177.00001       288.70574       98744.315       11776.284      0.68225000       2.1877500     -0.50225000       341.25600       2.0719633     0.016754708
       182.00002       288.72631       98740.444       11848.950      0.81400000       2.4070000     -0.15875000       341.61100       2.0768241     0.018156100
       187.00003       288.71454       98740.962       11901.682     -0.70825000      0.48200000     -0.13250000       341.83100       2.0516678     0.018709405
       192.00000       288.70241       98746.029       11897.757     -0.35200000       2.1940000     -0.43525000       341.87700       2.1304682     0.013699068
       197.00002       288.59013       98771.895       11730.018    -0.051750000       2.6765000     -0.29025000       341.27900       2.0248874     0.020995423
       202.00003       288.57937       98775.119       11672.376      0.33350000       1.7480000     -0.49925000       342.48700       2.0348867     0.018415590
       207.00000       288.64182       98769.698       11662.096     -0.63600000       2.5957500      0.19125000       342.37700       2.1484921     0.011869305
       212.00002       288.66179       98763.197       11618.759     -0.56200000       2.2832500      0.77900000       341.74100       2.0949648     0.014126280
       217.00003       288.69944       98738.474       11576.077      0.15375000       2.4267500      0.52625000       341.69400       2.0508574     0.018708946
       222.00000       288.71362       98735.100       11528.751       1.6722500       1.3182500      0.10650000       341.98700       2.0629841     0.019018112
       227.00002       288.69989       98740.671       11462.355       1.1415000       1.5172500    -0.059000000       341.64800       2.1066394     0.018999273
       232.00003       288.69978       98747.038       11414.086      0.79325000       2.1942500     -0.13050000       341.99800       2.0893030     0.017808671
       237.00000       288.72355       98770.648       11395.255     -0.15800000       2.5765000     -0.27750000       341.44000       2.1031895     0.017159381
       242.00002       288.69060       98775.414       11328.170       1.2557500       2.3447500     -0.62975000       341.40700       2.0880730     0.016571136
       248.00002       288.60799       98774.393       11211.965     -0.91725000       1.4375000      0.39325000       341.83700       2.0839900     0.018151726
       253.00000       288.56801       98767.076       11157.351    -0.047500000       1.8545000     -0.57525000       341.52100       2.0168640     0.018991903
       258.00001       288.48452       98745.543       11067.963      0.27500000       2.5917500    -0.080000010       341.28200       2.0424486     0.019782514
       263.00002       288.48067       98737.259       11072.780     -0.16025000       3.2920000    -0.076750000       341.13400       2.1330121     0.016200187
       267.99999       288.56337       98726.714       11175.133      0.24150000       2.4982500      0.31450000       341.76400       2.1124276     0.012928789
       273.00001       288.54563       98729.004       11190.138      0.22000000       2.6837500     -0.40000000       341.34900       2.0358757     0.020158735
       278.00002       288.50158       98742.137       11206.221      0.29150000       2.7940000     -0.35350000       340.60800       2.0612712     0.017281453
       283.00003       288.49133       98751.723       11225.268      0.31700000       1.5027500     0.083000000       341.63000       2.1015018     0.020850614
       288.00001       288.42990       98772.049       11191.603     -0.11125000       1.1180000      0.87775000       341.45700       2.0500214     0.018563081
       293.00002       288.44672       98775.612       11230.354    -0.067500000       1.5837500     0.089000000       341.23000       2.0985584     0.018393442
       298.00003       288.54845       98774.090       11335.592      0.80900000       1.1215000     0.083750000       341.82800       2.0726955     0.020110452
       303.00001       288.57993       98766.672       11381.770      0.55825000       1.6950000     -0.26400000       341.01400       2.1183225     0.016507374
       308.00002       288.59434       98746.416       11426.767      0.40600000       1.7962500     -0.12900000       340.94100       2.0641456     0.015975600
       313.00003       288.62442       98736.232       11455.478    -0.020000000       2.0325000     -0.16275000       340.74800       2.1275192     0.013362115
       318.00001       288.63663       98722.018       11450.513      0.34675000       1.3605000    -0.030500000       341.06800       2.1235417     0.017351852
       323.00002       288.67476       98722.222       11470.248      0.24525000      0.99425010     0.014500000       341.22900       2.0483948     0.024639266
       328.00003       288.75810       98730.554       11510.322      0.86375000      0.93550000    -0.084250000       341.78000       2.1269074     0.015228887
       333.00000       288.77042       98741.148       11506.997    -0.060000000      0.57625000      0.66600000       342.02300       2.0713853     0.017449488
       339.00001       288.74488       98767.172       11478.440      0.51100000       1.2197500     -0.18500000       340.65300       2.0325371     0.017102931
       344.00003       288.76157       98778.867       11461.300      0.37200000       1.1372500     -0.16000000       341.16800       2.0456847     0.021173933
       349.00000       288.78933       98783.626       11467.846      0.78150000      0.56225000   -0.0030000000       341.77000       2.0387391     0.015932168
       354.00001       288.90091       98775.610       11543.549       1.1427500      0.70575000     0.031500000       342.03600       2.0682186     0.017792500
       359.00002       288.96251       98770.702       11580.629       1.2215000       1.1732500     -0.16025000       340.81600       2.0880167     0.024151087
       364.00000       288.97012       98763.268       11590.532       1.1147500       1.2165000     0.030500000       340.93400       2.0027872     0.017204425
       369.00001       288.99985       98755.292       11614.039      0.44850000      0.92600010   0.00050000000       341.55800       2.0738717     0.023787799
       374.00002       289.02951       98747.302       11635.244     0.063500000      0.74975000    0.0080000000       341.37300       2.0562398     0.018528673
       379.00000       289.05569       98739.758       11653.756   -0.0040000000      0.41150000    -0.029000000       340.89600       1.9898864     0.017315952
       384.00001       289.05442       98734.772       11627.636     -0.19575000      0.82850000      0.37200000       341.44200       2.0906003     0.020201333
       389.00002       289.06191       98727.956       11599.609      0.51225000      0.79025010    -0.060500000       341.23300       2.0239844     0.018183743
       394.00000       288.97005       98734.962       11480.027       1.0185000       1.8602500     0.040500000       340.89400       2.0601265     0.021517339
       399.00001       288.93686       98739.888       11421.632      0.56550000       1.1252500     -0.45150000       341.44300       2.0873961     0.016190320
       404.00002       288.95977       98747.346       11414.263      0.83650000       1.7622500    -0.039750000       340.89100       2.0692763     0.018738973
       409.00003       288.94984       98755.287       11400.982      0.53800000       1.4275000     0.068250000       341.57800       2.0831725     0.015222536
       414.00001       288.93997       98763.228       11401.472      0.90250000       1.1657500      0.30775000       342.42000       2.0440676     0.022950946
       419.00002       288.97008       98770.562       11443.651     -0.32800000       1.8062500     -0.14475000       341.41400       2.0637235     0.018628918
       424.00003       288.91505       98775.430       11427.848     0.092250000       1.5710000    -0.055000000       341.42900       2.0080421     0.022681208
       430.00000       288.78329       98782.120       11383.556     -0.55025010       1.8597500    -0.013250000       341.21600       2.0920229     0.019164594
       435.00001       288.71911       98780.274       11348.456     -0.56450000       1.2280000    -0.030500000       341.34100       1.9908875     0.021160013
       440.00003       288.68134       98780.290       11323.313     0.022750000       1.1105000    -0.024000000       341.49600       2.0737507     0.018374233
       445.00000       288.70026       98780.372       11309.290    -0.023250000      0.92100010      0.18400000       342.20200       2.0482364     0.018472621
       450.00001       288.70026       98780.410       11300.720     0.024750000       1.2022500     -0.58300000       341.68800       2.0585868     0.018350987
       455.00003       288.68556       98783.091       11274.415       1.2642500       2.1452500      0.44025000       341.73000       2.0616547     0.015820986
       460.00000       288.69645       98780.880       11287.553      0.92775010       1.1492500   -0.0025000000       341.67300       2.1493992     0.017007208
       465.00001       288.71832       98775.093       11335.327      0.47775000       1.0245000      0.29975000       341.72000       2.0088739     0.017877747
       470.00003       288.74964       98769.949       11381.235       1.6090000       1.8250000     -0.19275000       341.21400       2.0583952     0.019418454
       475.00000       288.80980       98758.862       11447.982       1.1367500       1.8972500     -0.33425000       341.13900       2.0954797     0.016099724
       480.00001       288.86032       98753.026       11522.299      0.79950000       2.1655000     -0.51050000       341.44500       2.0913948     0.017952389
       485.00002       288.91061       98753.975       11594.306       1.7192500       1.7747500      0.17225000       341.83200       2.0327417     0.016932354
       490.00000       288.96086       98749.826       11682.441     0.023750000       2.7235000     -0.59175000       340.94300       2.0218629     0.022098339
       495.00001       289.01000       98743.541       11827.118    -0.041000000       3.4107500      0.34700000       341.18400       2.1139522     0.020027807
       500.00002       289.05939       98739.592       11913.301      0.49375000       2.9187500     -0.19950000       341.46900       2.1380173     0.013408981
       505.00000       289.12386       98732.372       12011.379      0.57475000       3.0817500     -0.42100000       341.49400       2.0459856     0.015376422
       510.00001       289.16248       98728.730       12039.215      0.10875000       2.7692500     -0.81075010       341.17200       2.0745498     0.014306723
       516.00002       289.19470       98730.266       11971.119      0.57200000       2.0997500      0.69625000       341.47700       2.1250590     0.015115333
       521.00003       289.21116       98730.248       11924.583    -0.084500010       3.0317500     -0.83200000       340.88000       2.1378012     0.016938019
       526.00000       289.25094       98730.133       11850.326       1.0180000       3.7597500   -0.0087500000       341.11600       2.0532980     0.022792219
       531.00002       289.19609       98730.074       11762.834     -0.29800000       3.5122500    -0.033000000       341.38100       2.0599603     0.016724896
       536.00003       289.05987       98730.232       11667.095       1.1312500       3.5440000     -0.12100000       341.06600       2.1376870     0.019351119
       541.00000       288.96682       98730.191       11571.193      0.63000010       2.4245000    -0.096750010       341.52200       2.0868035     0.021437209
       546.00002       288.76963       98730.282       11406.999      0.32425000       1.5792500      0.10275000       341.78900       2.0453300     0.016262239
       551.00003       288.69868       98730.301       11341.277      0.26750000       2.2402500     -0.32500000       340.86700       2.1110188     0.016467060
       556.00000       288.76896       98730.101       11367.082     0.016500000       2.7455000     -0.36150000       341.19400       2.1137530     0.015290703
       561.00001       288.74502       98730.041       11322.606     -0.28500000       2.4417500      0.15125000       341.47500       2.0472495     0.016774521
       566.00003       288.71901       98730.103       11283.585      -1.5295000       3.2002500      0.27625000       341.30700       2.1407664     0.015135619
       571.00000       288.69559       98730.065       11256.188      0.22625000       2.8400000     0.077250000       341.78600       2.1073612     0.015577197
       576.00001       288.60970       98730.134       11166.807     -0.16550000       1.7365000      0.57150000       341.55800       2.0936354     0.018784786
       581.00003       288.57670       98730.074       11140.182     -0.52650000       2.3170000     0.092500000       341.27500       2.0802689     0.023170326
       586.00000       288.59981       98730.233       11189.578      0.56150000       2.2935000     -0.58875000       341.13400       2.1085911     0.016090324
       591.00001       288.59965       98730.192       11207.504      0.14075000       1.5455000    -0.019500000       342.00100       2.1113029     0.014447208
       596.00003       288.58735       98723.625       11212.300       1.0082500       1.4475000    -0.031750000       341.54000       2.0966112     0.016249522
       601.00000       288.60157       98730.614       11245.152      0.38200000       1.1620000      0.42875000       341.84700       2.1865201     0.015279245
