MIRICO/SHELL project - Processed LDS file generated on
Thu Jul 13 16:17:21 2017
Time stamp for record start
05/11/2017  13:13:14.0001
Nb of points in the record
         612
Beam position index
       1.0000000
Beam angle (degrees)
      -18.455000
Open Path length (m)
       34.890000
****************** Temporal data record ************************
Elapsedtime_sec Temp_K Press_Pa Humidity_ppmv WindX_m/s WindY_m/s WindZ_m/s Speedofsound_m/s CH4vmr_ppmv CH4vmrerror_ppmv  
      0.00000000       293.63178       98659.225       13755.350       3.8502500       3.6732500    -0.076250000       343.36800       2.8486883     0.017630324
       5.9999675       293.53956       98631.181       13806.179       1.0505000       2.7607500       1.8077500       344.60900       3.0151954     0.022502285
       10.999981       293.50000       98621.646       13820.302       1.8642500       1.4300000      0.85425000       345.75100       2.7444935     0.016052410
       15.999994       293.46013       98619.224       13783.081       4.5750000      0.39350000      0.30725000       345.45300       2.2499312     0.021031484
       20.999967       293.40076       98621.423       13749.737       1.9495000       2.2950000     -0.10525000       345.22500       2.7191712     0.026983644
       25.999980       293.34138       98630.996       13706.288       4.7867500       1.8895000      0.50900000       344.26600       2.5762759     0.018707053
       30.999993       293.30223       98657.574       13649.597       3.5202500       1.3122500      0.20100000       343.84700       2.9826955     0.024199067
       35.999966       293.26185       98664.101       13578.451       6.0952500      0.25075000   0.00050000000       343.72400       2.8487908     0.021959845
       40.999979       293.16400       98668.948       13479.007       5.8147500       1.8265000     -0.13950000       343.48500       3.0009201     0.016961080
       45.999992       293.29228       98652.644       13459.847       4.8167500      0.96250000      0.57675000       344.44400       3.3153338     0.018853499
       50.999965       293.39032       98644.427       13452.802       3.5682500       2.1947500      0.29375000       345.34000       2.3650793     0.016384736
       55.999978       293.58612       98630.372       13517.144       3.4020000      0.43250000       1.1260000       345.49800       2.3392794     0.017751516
       60.999991       293.71864       98626.740       13574.268       3.8175000       1.6942500     0.031500000       344.46200       2.3763868     0.026827520
       65.999964       293.81428       98630.495       13633.252       4.2085000       1.9945000     -0.39075000       344.14100       2.4147816     0.021691357
       70.999977       293.88142       98645.103       13691.487       4.7872500       2.1887500     -0.33850000       344.04300       2.5377546     0.016855809
       75.999990       293.85401       98651.196       13728.912       3.3937500       2.5265000    -0.062250000       344.69900       2.7944048     0.017530135
       80.999963       293.77300       98663.433       13781.896       2.8930000       1.9142500      0.74000000       345.76400       3.3533243     0.023829947
       85.999976       293.56723       98658.483       13750.105       3.8145000       3.7210000    -0.023000000       344.00300       2.6288110     0.018796211
       90.999989       293.43345       98651.790       13706.136       4.0630000       1.3510000     -0.12250000       344.58800       2.5097187     0.019126989
       96.999997       293.27940       98624.881       13588.171       4.9520000       4.9722500      0.19600000       343.18400       3.4765116     0.019602680
       101.99997       293.21525       98620.909       13523.526       5.4137500       2.9597500     -0.34125000       342.67600       3.0621335     0.021116014
       106.99998       293.27241       98628.977       13482.720       4.2035000       1.2037500      0.13650000       344.79200       2.3812935     0.024786548
       112.00000       293.25145       98634.486       13418.926       4.7332500       1.4215000      -1.0105000       344.27500       3.1749803     0.019061039
       116.99997       293.28303       98658.768       13393.687       3.4980000       2.5745000     -0.10425000       344.59100       3.0977978     0.019293289
       121.99998       293.21657       98670.137       13311.466       2.6990000       2.4287500   0.00025000000       344.17600       3.0783719     0.029658656
       127.00000       293.01299       98675.021       13166.184       4.8102500       1.9162500     -0.10175000       345.28500       3.0693917     0.022103385
       131.99997       292.87216       98672.467       13039.944       3.8350000       1.1097500      0.36350000       345.12700       2.5903306     0.019281284
       136.99998       292.59868       98656.453       12824.915       3.8705000      0.87750010       1.6472500       345.71200       3.2812982     0.020898004
       141.99999       292.53721       98648.391       12738.672       4.1667500       1.7657500      0.81775000       345.42400       2.8375857     0.019800979
       146.99997       292.66183       98629.979       12730.018       5.3895000       2.2987500      0.48175000       343.92800       2.8462752     0.015402564
       151.99998       292.74648       98625.938       12735.929       4.3582500       3.1922500     0.056500000       343.86700       2.3958183     0.020950376
       156.99999       293.06240       98638.781       12892.438       2.1257500       1.8882500       1.0012500       345.39900       3.0909242     0.021982548
       161.99997       293.16101       98645.946       12939.812       3.0225000       2.1372500      0.11325000       343.96900       3.3081079     0.019336293
       166.99998       293.09216       98662.134       12931.066       2.7995000      0.37850000     -0.11650000       345.46400       2.7728749     0.017118304
       171.99999       293.05845       98668.685       12928.094       4.6682500       1.5002500      0.43300000       345.52000       2.6632388     0.024288500
       176.99997       292.86518       98670.096       12825.156       2.4007500      0.87400000      0.61575000       345.96800       2.7685277     0.016740765
       181.99998       292.81036       98666.649       12821.588       2.6532500      0.91175000      0.48650000       345.21100       2.2544752     0.026188124
       187.99999       292.92043       98649.222       12922.764       1.5932500      0.38475000     0.096250010       346.41500       2.4259259     0.021498679
       193.00000       292.90315       98641.646       12961.316       2.9835000      0.99850000     -0.88525000       344.73000       2.5371467     0.018092324
       197.99997       292.87628       98628.068       13045.266       4.9382500       1.6000000    -0.058250000       343.09900       2.2498986     0.044525104
       202.99999       292.84928       98627.331       13074.269       5.4252500       2.0942500      0.10750000       343.81000       2.7618654     0.023397619
       208.00000       292.72920       98640.326       13040.008       3.6032500      0.72950010     -0.59300010       343.71100       2.9847019     0.042561006
       212.99997       292.66708       98647.855       13014.469       3.8137500       2.6412500     -0.66375010       343.52600       3.7037416     0.015538166
       217.99998       292.63668       98666.429       12960.897       2.4605000      0.20000000      0.46100000       345.88300       3.5960360     0.042004281
       223.00000       292.64434       98669.271       12941.883       2.9655000      0.79500000     -0.34725000       345.62100       2.8615453     0.025702557
       227.99997       292.61729       98659.431       12876.823       3.2332500      0.85375010      0.62425010       345.61200       3.8081469     0.022687769
       232.99998       292.70876       98653.687       12917.830       4.3852500     -0.19575000     0.089500000       344.35000       3.3702080     0.027942767
       238.00000       292.96746       98636.598       13063.774       3.9692500      0.73950000      -1.1372500       343.49600       2.9782933     0.024306465
       242.99997       293.11243       98631.144       13164.745       3.7302500      0.22725000     -0.20125000       344.66900       2.7634394     0.022853455
       247.99998       293.39359       98630.494       13365.229       6.7540000      0.48200000     -0.52400000       345.08400       2.8875034     0.016512337
       253.00000       293.41027       98635.047       13444.231       2.9627500       1.4385000     -0.20725000       345.62200       3.2341094     0.013720664
       257.99997       293.20423       98650.956       13442.557       5.1860000       1.7122500     0.097250010       343.93200       3.8275580     0.035837895
       262.99998       293.05826       98658.541       13430.143       3.2570000       2.0990000     -0.47975000       343.28700       4.1731021     0.030792429
       267.99999       292.71200       98672.743       13328.427       2.2492500       2.1852500     -0.29850000       345.94900       2.9366979     0.029526145
       272.99997       292.55332       98673.565       13281.464       2.4595000       2.2042500      0.95275000       346.23500       2.5215068     0.018005101
       278.99998       292.47895       98658.729       13238.506       2.2995000       2.1907500      0.25825000       345.25600       2.4517889     0.017488056
       283.99999       292.47056       98651.124       13205.878       2.5495000       3.7565000      0.26125000       345.05800       2.6786771     0.046376491
       289.00000       292.56157       98632.841       13195.224      0.87950000       3.1675000      0.16450000       345.71500       2.9927362     0.019898439
       293.99997       292.63348       98631.508       13175.136       3.4632500       3.3612500      -1.0387500       342.76000       2.5710059     0.020818322
       298.99999       292.74529       98641.425       13139.842       3.9625000       4.3280000     -0.50400000       343.21200       2.5258681     0.031965891
       304.00000       292.86207       98647.716       13125.548       3.3955000       2.5790000      0.24925000       344.13500       2.3327699     0.026353089
       308.99997       293.00090       98664.097       13109.809       2.6112500       2.0955000    -0.098500010       345.66200       2.4247424     0.022877805
       313.99999       293.12145       98670.308       13128.852       2.8102500       2.9720000      0.68575000       344.40200       2.3474145     0.026964419
       319.00000       293.28435       98673.691       13195.274       3.6820000       2.2222500       1.6745000       344.71200       2.9296172     0.031945931
       323.99997       293.36666       98670.308       13212.708       1.7680000       1.1880000      0.31300000       345.46500       2.6372775     0.045105965
       328.99999       293.39817       98658.785       13209.204       3.3667500      0.64550000      0.52075000       346.02300       2.8061409     0.034751024
       334.00000       293.42526       98651.190       13254.428       4.0525000       1.6362500     -0.14775000       344.86900       2.6170884     0.032330174
       338.99997       293.43468       98632.807       13301.342       2.1660000       1.7570000      0.74000000       344.99000       3.2481037     0.026906889
       343.99998       293.38502       98631.643       13340.632       1.8435000       3.2675000      0.47200000       345.15800       4.0577310     0.014191425
       349.00000       293.28486       98642.018       13454.149       4.3937500       2.8277500      -1.2197500       342.75100       3.4624119     0.027962271
       353.99997       293.20827       98648.326       13463.567       2.8727500       2.3232500     -0.21750000       344.16200       2.8651128     0.041099053
       358.99998       293.10267       98665.398       13406.075       4.1322500       1.3515000   -0.0055000000       343.80500       2.7397518     0.035652467
       364.99999       292.94959       98670.196       13316.942       4.8972500       1.9927500     -0.38925000       343.31200       2.2792969     0.017852978
       369.99996       292.82933       98667.800       13190.587       3.0562500       1.6622500     -0.58800000       344.51600       2.3335995     0.034349970
       374.99998       292.70127       98663.160       13094.157       3.0810000       1.8962500     -0.90650000       344.24700       2.1474938     0.031575503
       379.99999       292.54171       98651.614       12982.425       5.3395000       3.6712500     -0.54550000       343.14300       2.1714747     0.025768246
       384.99996       292.36438       98644.621       12876.744       5.6622500       2.6385000      -1.6705000       344.43600       3.0082344     0.024943143
       389.99998       292.15961       98634.437       12768.574       5.4590000       1.3407500      0.82950000       344.27700       3.2885383     0.018774044
       394.99999       292.05527       98632.130       12699.798       1.8787500       1.8887500       1.5337500       346.47400       2.7596293     0.049126846
       399.99996       291.88915       98631.960       12610.590       4.0507500       3.1610000     -0.94275000       343.58400       2.2981328     0.027884047
       404.99998       291.94624       98638.472       12617.104       4.3500000       2.2782500      0.27700000       344.30300       3.3839351     0.013699868
       409.99999       292.22808       98654.525       12711.582       5.0215000       2.5340000     -0.39575000       342.74200       2.7227501     0.014894362
       414.99996       292.35810       98661.641       12758.915       4.4152500       1.7030000     0.012000000       343.80200       3.1704878     0.028707129
       419.99997       292.57017       98673.934       12840.802       3.8955000       2.3465000     -0.11025000       343.78200       2.8336015     0.015352234
       424.99999       292.62734       98671.715       12894.017       2.3202500       3.8372500       1.1927500       344.14100       2.4920401     0.021245195
       430.00000       292.54835       98657.831       12915.542       3.2402500       1.5555000      0.28975000       345.06500       2.5164346     0.020638453
       434.99997       292.55809       98649.899       12968.746       3.6027500       1.0517500       1.0847500       345.47300       2.5081645     0.021007857
       439.99999       292.56059       98632.263       13045.214       2.2610000       2.0680000      0.13900000       346.68400       2.1608517     0.022931676
       445.00000       292.53144       98632.607       13091.743       4.6072500       3.2790000      0.32425000       344.68600       1.9541007     0.031421662
       449.99997       292.52769       98643.114       13151.347       5.1672500       2.4832500     -0.25750000       342.97300       2.8053671     0.027329900
       455.99998       292.33843       98658.879       13100.295       4.7775000       2.3755000     0.088750000       344.75000       3.1723023     0.032042069
       460.99999       292.27451       98667.125       13092.846       3.8397500       3.9902500     -0.67200010       344.26800       3.0384509     0.041340513
       465.99997       292.30498       98673.299       13098.563       2.7997500       1.5045000      0.24525000       344.84900       3.0055680     0.065100004
       470.99998       292.29366       98672.805       13083.298       1.5350000       2.6112500      0.30425000       345.68900       2.9271523     0.024187930
       475.99999       292.29463       98667.381       13070.347       2.8812500       1.1977500     -0.13575000       344.50000       3.0219787     0.028071751
       480.99997       292.37061       98656.415       13098.991       3.2875000       1.5392500     -0.18075000       345.22100       2.6759683     0.025024955
       485.99998       292.34624       98648.219       13054.355       3.6822500       1.2525000     -0.62550000       344.73100       2.7432274     0.031975390
       490.99999       292.25052       98632.987       12956.681       3.7577500       2.7367500     -0.58000000       344.98100       2.8286868     0.028423939
       495.99997       292.16973       98630.392       12849.779       3.3712500       1.0920000     -0.23800000       345.72500       2.3922253     0.030493737
       500.99998       292.13629       98632.802       12808.752       5.3692500       2.4847500     -0.75175010       343.84200       3.1056819     0.020056284
       505.99999       292.11533       98647.762       12811.388       4.3005000       2.2817500    0.0060000000       343.61200       3.0670218     0.014036962
       510.99996       292.13180       98655.747       12832.473       4.0602500       2.7010000     -0.73750000       343.75900       3.0956017     0.023971107
       515.99998       292.18520       98662.483       12886.608       5.4632500       1.1030000      0.11225000       344.54300       3.0159826     0.017197312
       520.99999       292.31167       98672.032       13011.365       3.4907500      0.55375000       1.2245000       345.61200       2.4518814     0.023838653
       525.99996       292.33925       98674.540       13059.595       4.4290000       1.6412500      0.17950000       344.19600       3.2104425     0.024445276
       530.99998       292.36196       98671.010       13090.147       2.3850000      0.88650010      0.38800000       345.25200       2.6880455     0.030316878
       535.99999       292.31488       98671.586       13147.704       5.1155000       1.3282500     -0.20125000       344.29200       3.0496414     0.024219967
       540.99996       292.29339       98666.932       13189.702       2.4422500      0.71925000      0.21725000       344.65100       3.0993980     0.019626267
       546.99997       292.32813       98646.708       13301.300       4.5360000       2.7190000     -0.75475000       343.57900       2.7352890     0.033811256
       551.99998       292.30538       98642.302       13318.919       4.6320000       3.6357500     -0.38575000       342.99200       2.7649388     0.029844993
       557.00000       292.21766       98641.853       13235.004       3.0100000      0.49775000       1.1877500       343.97900       2.6553684     0.025575904
       561.99997       292.18900       98643.274       13205.498       3.6925000       1.6810000      0.96200010       344.43700       2.3482636     0.022386946
       566.99998       292.16717       98662.172       13174.593       3.1387500       1.4020000       1.6360000       344.63800       2.2441178     0.026856056
       572.00000       292.13834       98668.662       13123.381       4.4812500       2.8210000     -0.25175000       343.28100       2.5667834     0.019702453
       576.99997       292.14175       98668.815       13078.569       4.3892500       2.2030000    -0.090000000       342.88300       2.5210884     0.018460061
       581.99998       292.15197       98666.512       13047.989       3.7550000       1.6440000    0.0072500000       344.06000       2.5213830     0.024240592
       586.99999       292.15880       98655.925       12998.258       2.2472500       1.7155000      0.38325000       343.69300       2.8266834     0.022342856
       591.99997       292.14907       98648.942       12950.534       2.8595000       2.0667500     -0.46950000       344.03700       2.6057419     0.022854016
       596.99998       292.15615       98637.392       12917.330       2.8460000       2.1420000     -0.25375000       344.01300       2.6686982     0.024911518
       601.99999       292.15485       98632.856       12902.724       1.8770000       1.3932500     -0.79425000       343.43800       2.7856067     0.025420136
