MIRICO/SHELL project - Processed LDS file generated on
Fri Jul 14 01:43:52 2017
Time stamp for record start
05/11/2017  13:13:15.0001
Nb of points in the record
         612
Beam position index
       2.0000000
Beam angle (degrees)
      -8.6100000
Open Path length (m)
       64.850000
****************** Temporal data record ************************
Elapsedtime_sec Temp_K Press_Pa Humidity_ppmv WindX_m/s WindY_m/s WindZ_m/s Speedofsound_m/s CH4vmr_ppmv CH4vmrerror_ppmv  
      0.00000000       293.63947       98657.527       13767.257       4.8427500       4.0477500    -0.091000010       344.11400       2.9051135     0.015516569
       4.9999729       293.53956       98631.181       13806.179       2.3620000       1.6437500       1.1842500       345.29300       2.7262191     0.018740317
       9.9999860       293.50000       98621.646       13820.302       4.6422500       3.0345000      0.22800000       344.35700       2.7382080     0.016917049
       14.999999       293.46013       98619.224       13783.081       6.5407510       1.7220000     -0.17325000       343.69000       2.7374183     0.013398246
       19.999972       293.40076       98621.423       13749.737       2.2477500       2.3742500      0.94550000       344.35900       2.7837722     0.020266598
       24.999985       293.34138       98630.996       13706.288       3.7535000      0.78250000      0.20425000       344.71500       2.8439571     0.016075790
       29.999998       293.30223       98657.574       13649.597       5.0720000       3.1417500     -0.75100000       343.66400       2.6465415     0.016517936
       34.999971       293.26185       98664.101       13578.451       5.6400000       1.2482500     -0.37975000       344.00600       3.2650215     0.013707263
       39.999984       293.16400       98668.948       13479.007       5.0440000       1.4865000      0.15425000       344.33700       3.0554862     0.016619988
       44.999997       293.29228       98652.644       13459.847       4.3365000       2.0910000      -1.4190000       343.75400       3.1789491     0.015048020
       49.999970       293.39032       98644.427       13452.802       2.7672500       1.5567500      0.44725000       345.50400       2.7056358     0.015991146
       55.999978       293.61558       98629.055       13528.441       3.3045000       1.8280000     -0.15550000       345.49800       2.5385406     0.019819869
       60.999991       293.74071       98626.900       13585.904       5.1440000       3.3662500     -0.76575010       343.54300       2.3235197     0.013375672
       66.000004       293.85808       98640.299       13655.524       3.0950000       3.2582500     -0.16850000       345.11100       2.2358312     0.017972815
       70.999977       293.88097       98646.314       13699.654       3.3537500       2.2625000      0.93050000       344.46900       2.4295147     0.017516576
       75.999990       293.82954       98660.181       13767.787       3.4142500       2.6630000     -0.47525000       344.20000       2.9010877     0.019765764
       81.000003       293.75386       98663.621       13781.789       4.8415000       2.5665000     -0.96950010       343.82200       3.1197116     0.016557576
       85.999976       293.53835       98657.441       13743.040       4.0550000       1.9852500    -0.091000010       344.38500       2.2563327     0.014346437
       90.999989       293.40988       98650.007       13694.786       3.0060000       2.7160000     -0.11725000       345.16600       2.9885771     0.015000336
       96.000002       293.27940       98624.881       13588.171       5.4340000       4.8602500     -0.22950000       343.13200       2.8720278     0.014186548
       100.99998       293.21525       98620.909       13523.526       5.1737500       2.6207500     -0.68500010       342.87700       2.8064331     0.012982812
       105.99999       293.27241       98628.977       13482.720       3.5530000       1.3540000     -0.30575000       344.69200       2.8568759     0.015101139
       111.00000       293.25145       98634.486       13418.926       3.8262500     -0.56525000    -0.026500000       345.35200       2.7954804     0.015742268
       115.99997       293.28303       98658.768       13393.687       3.3097500       1.3787500      0.13650000       345.19800       3.1715326     0.016216031
       120.99999       293.21657       98670.137       13311.466       1.5802500       2.4505000     0.097250010       344.92200       3.1876466     0.012834191
       126.00000       293.01299       98675.021       13166.184       6.7075000       2.8902500      0.20950000       343.54200       3.0645146     0.015633110
       130.99997       292.87216       98672.467       13039.944       3.2532500       2.6455000     -0.40475000       344.39900       2.5677368     0.014507443
       135.99999       292.59868       98656.453       12824.915       3.1570000       1.5577500      0.98150000       346.09700       3.0721278     0.015463220
       141.00000       292.53721       98648.391       12738.672       4.5550000      0.23450000      0.92375000       344.33900       2.9535482     0.015885177
       147.00001       292.67482       98628.482       12727.465       4.7820000       3.2357500     -0.27725000       344.00300       2.9160434     0.012616118
       151.99998       292.76932       98626.163       12742.721       5.1000000       3.1855000    -0.022250000       343.68400       2.6160583     0.013745377
       156.99999       293.09015       98640.104       12905.009       2.4230000       1.9812500      0.50525000       345.05500       3.4019300     0.015422583
       162.00001       293.16869       98647.544       12944.645       3.3085000       2.8332500     -0.87925000       344.79200       3.1183739     0.012963778
       166.99998       293.08842       98663.846       12932.135       4.5897500       2.3112500     0.082500000       344.21700       2.8487140     0.015593496
       171.99999       293.04720       98669.392       12925.002       2.6360000       2.1440000      0.39425000       345.50200       2.7532248     0.014783993
       177.00001       292.84913       98669.806       12820.804       2.3910000      0.87450000     -0.21150000       344.68200       2.4838779     0.014889919
       181.99998       292.80703       98665.361       12826.336       2.5460000      0.79050000      0.43875000       345.80800       2.3866549     0.014386443
       186.99999       292.92043       98649.222       12922.764       1.5445000       1.0432500      0.42775000       346.67000       2.3702531     0.015267431
       192.00000       292.90315       98641.646       12961.316       4.4362500       1.6677500      0.24925000       342.84000       2.8780347     0.013954309
       196.99998       292.87628       98628.068       13045.266       4.7505000       2.0217500      0.13475000       343.34600       2.3693596     0.012139570
       201.99999       292.84928       98627.331       13074.269       4.8240000       1.4522500     -0.62825000       343.61700       2.9481687     0.012808844
       207.00000       292.72920       98640.326       13040.008       4.0745000       2.0502500     -0.43075000       343.90700       3.0150846     0.013394934
       211.99998       292.66708       98647.855       13014.469       4.4542500       1.6432500      0.13550000       343.91900       3.5809283     0.012390521
       216.99999       292.63668       98666.429       12960.897       2.6407500      0.64250000      0.29600000       345.04400       3.0917878     0.013391021
       222.00000       292.64434       98669.271       12941.883       3.2807500      0.98750010     -0.39425000       345.51500       2.8938993     0.014133471
       226.99998       292.61729       98659.431       12876.823       3.5660000      0.26950000     -0.31050000       344.32400       2.7485672     0.013043304
       231.99999       292.70876       98653.687       12917.830       3.9790000     -0.83025000     -0.39925000       345.13400       2.9153692     0.012867950
       238.00000       292.99744       98635.112       13082.882       4.4850000    -0.040250000      0.68650000       344.50200       2.3730489     0.016114314
       242.99997       293.13995       98630.647       13186.586       4.3160000      0.33225000      0.72275000       344.66300       2.3611546     0.012714223
       247.99998       293.40803       98630.999       13385.594       4.7287500       1.9327500      -1.0847500       345.73600       2.6524051     0.012983759
       253.00000       293.39695       98636.567       13453.108       3.5452500       1.1777500      0.65475000       345.05000       2.9755892     0.014255414
       257.99997       293.17905       98652.573       13443.040       4.7532500     -0.34425000     -0.10625000       344.39400       3.7500770     0.012363341
       262.99998       293.02305       98659.908       13423.206       3.0370000       2.5382500    -0.020250000       343.51600       3.2324897     0.012710391
       267.99999       292.67409       98673.514       13318.168       2.7292500       1.4380000     0.074500000       345.86800       2.8636268     0.016729447
       272.99997       292.53084       98672.819       13273.413       2.2325000      0.92350010     -0.39600000       346.12400       2.3924425     0.015697393
       277.99998       292.47895       98658.729       13238.506       1.9030000       1.3340000     -0.12150000       345.73400       2.2869508     0.014836356
       282.99999       292.47056       98651.124       13205.878       3.0845000      0.87425010       1.1305000       345.08800       2.6066143     0.015252663
       288.00001       292.56157       98632.841       13195.224       3.5585000       4.3920000     -0.84650000       343.04300       2.2312548     0.011671217
       292.99998       292.63348       98631.508       13175.136       3.1865000       2.0145000    -0.082500000       343.24500       2.3675143     0.025580455
       297.99999       292.74529       98641.425       13139.842       4.4357500       3.5802500     -0.13575000       343.15500       2.1123051     0.014376065
       303.00001       292.86207       98647.716       13125.548       3.3260000       3.7015000     -0.35725000       345.16500       2.1799227     0.013758657
       307.99998       293.00090       98664.097       13109.809       3.0805000       3.9435000      -1.4025000       343.60100       2.2196371     0.018579851
       312.99999       293.12145       98670.308       13128.852       3.4157500       3.3287500     -0.34025000       343.84100       2.1181543     0.011833598
       318.00001       293.28435       98673.691       13195.274       1.7075000       3.0605000      0.39050000       343.66800       2.5656999     0.015814115
       322.99998       293.36666       98670.308       13212.708       2.0905000       2.1337500      0.40375000       345.27700       2.4145208     0.016756661
       328.99999       293.40556       98657.364       13217.181       3.6112500       1.0277500   -0.0077500000       346.10900       2.3447549     0.015227607
       334.00000       293.42772       98649.522       13265.072       4.3122500       1.7232500     0.044500000       344.53900       2.3850703     0.012671632
       338.99997       293.42780       98631.970       13308.528       2.3795000       2.6242500      0.94700000       344.94000       3.0600212     0.012182190
       343.99998       293.37052       98632.317       13349.468       3.4555000       1.0835000      0.61475000       345.86900       2.8613579     0.028282652
       349.00000       293.27054       98643.079       13459.894       3.7320000       2.3357500      0.36600000       344.27400       2.7595753     0.013686137
       353.99997       293.19145       98649.888       13459.678       4.8047500       1.5727500     -0.95300010       344.47700       3.0723418     0.010419309
       358.99998       293.07834       98666.706       13394.272       4.6090000       1.3025000      0.33725000       344.62300       3.5331140     0.016158431
       364.00000       292.94959       98670.196       13316.942       4.2692500       1.5105000     -0.47675000       344.62300       2.4961406     0.012285584
       368.99997       292.82933       98667.800       13190.587       2.6537500       3.1880000     -0.15350000       345.60100       2.6509503     0.012110096
       373.99998       292.70127       98663.160       13094.157       3.3925000       1.1280000     -0.38675000       344.50100       2.5846313     0.017095316
       379.00000       292.54171       98651.614       12982.425       4.0592500       3.4677500      0.10525000       344.11900       2.2627516     0.012787555
       383.99997       292.36438       98644.621       12876.744       3.2170000      0.97050010    0.0085000000       344.90500       3.3671495     0.012197207
       388.99998       292.15961       98634.437       12768.574       4.9140000      0.75200000      0.21350000       343.94300       2.8947000     0.015094064
       394.00000       292.05527       98632.130       12699.798       3.8587500       2.5270000     -0.23650000       344.24300       2.7924114     0.016093257
       398.99997       291.88915       98631.960       12610.590       5.6607500       2.2457500      0.14175000       343.95300       2.3098643     0.022363428
       403.99998       291.94624       98638.472       12617.104       4.7485000      0.70450000      0.49700000       344.98100       3.1033578     0.011715455
       408.99999       292.22808       98654.525       12711.582       5.1665000       2.0030000     -0.17075000       343.26700       2.9527806     0.012891428
       415.00000       292.47126       98670.389       12791.329       4.3792500       1.6515000     -0.49375000       343.09400       2.8578832     0.011900904
       419.99997       292.58751       98674.081       12852.208       2.7582500       1.3777500      0.59625010       344.69600       2.6909109     0.013717989
       424.99999       292.62991       98670.385       12903.508       3.4905000      0.31875000      0.80600010       345.54300       2.3240646     0.011370104
       430.00000       292.55032       98656.354       12925.420       1.7160000       1.1915000      0.62050000       345.57900       2.4350078     0.023141559
       434.99997       292.56001       98648.148       12980.531       3.1410000       1.2430000     0.010250000       345.26500       2.2879070     0.012175608
       439.99999       292.55576       98631.727       13055.206       3.6185000       1.6262500      -1.0540000       345.14200       2.1860492     0.011763301
       445.00000       292.55370       98639.496       13127.864       5.2260000       2.1872500     0.031250000       343.45000       2.6171425     0.012847640
       449.99997       292.51746       98644.258       13153.998       5.6645000       2.8960000     -0.60625000       343.55600       2.6727204     0.014382718
       454.99999       292.33843       98658.879       13100.295       4.4585000      0.84725000    -0.049750000       345.56200       2.9127887     0.011605326
       460.00000       292.27451       98667.125       13092.846       3.9762500       3.2437500     -0.97050010       344.36100       2.9113386     0.013631491
       464.99997       292.30498       98673.299       13098.563       2.4865000       1.3872500     -0.25875000       343.98800       2.4403534    0.0089386130
       469.99999       292.29366       98672.805       13083.298       4.0762500       1.6640000     -0.33325000       343.86600       2.4758662     0.010010961
       475.00000       292.29463       98667.381       13070.347       3.2835000       1.3167500     -0.45925000       344.20200       2.5992235     0.020232532
       479.99997       292.37061       98656.415       13098.991       2.7435000       1.0505000      0.56075000       345.62000       2.5376575     0.015353907
       484.99998       292.34624       98648.219       13054.355       3.4205000       1.4727500     -0.47000000       344.81600       2.7313772     0.012130014
       490.00000       292.25052       98632.987       12956.681       3.9152500       4.9215000     -0.72400000       343.96200       2.2507729     0.012704451
       494.99997       292.16973       98630.392       12849.779       3.6997500      0.36475000     -0.70075010       344.56900       2.4719829     0.013488765
       499.99998       292.13629       98632.802       12808.752       5.3327500       1.9292500     -0.15100000       343.07700       2.8296530    0.0074861353
       505.99999       292.11567       98649.459       12812.972       5.2967500       2.8357500      -1.7535000       343.71100       3.1976059     0.010044792
       511.00000       292.13952       98657.194       12840.648       4.4440000       1.1445000      -1.0370000       344.82800       2.8510937     0.012747525
       515.99998       292.27187       98667.305       12960.877       4.0327500       1.4837500      0.22000000       344.21000       2.7972414     0.011216961
       520.99999       292.31916       98672.836       13022.339       3.9860000       1.5132500     -0.22400000       345.24900       2.2245757     0.010237005
       526.00000       292.34578       98671.771       13046.765       3.5117500       1.6942500      0.21775000       344.64200       2.8833149     0.016688268
       530.99998       292.36350       98670.696       13101.273       1.3447500      0.27475000       1.4400000       345.51500       2.6583962    0.0094864585
       535.99999       292.30956       98670.953       13155.981       2.4977500       2.0207500    -0.084250000       344.81400       3.5130951     0.012333037
       541.00000       292.29062       98665.555       13198.292       2.8175000       1.4570000      0.37500000       345.14700       3.2222810     0.012605739
       545.99998       292.32813       98646.708       13301.300       3.4842500       1.3055000      -1.3152500       343.82000       2.8504932     0.011239171
       550.99999       292.30538       98642.302       13318.919       3.8775000       2.8537500     -0.89300010       342.80000       2.9254858     0.013625161
       556.00000       292.21766       98641.853       13235.004       3.6987500       1.7377500     -0.37150000       344.16500       2.3629316     0.012751988
       560.99997       292.18900       98643.274       13205.498       2.3045000       1.9702500   -0.0017500000       344.16400       2.7484957     0.012822940
       565.99999       292.16717       98662.172       13174.593       3.5730000       1.3200000      0.34450000       344.24700       2.9701998     0.013211694
       571.00000       292.13834       98668.662       13123.381       3.8215000       2.4157500      0.28275000       344.22100       2.6644626     0.012085737
       575.99997       292.14175       98668.815       13078.569       4.2305000       1.6567500     -0.25025000       343.26500       2.3398482     0.015203628
       580.99999       292.15197       98666.512       13047.989       2.6575000       2.0067500      0.18650000       344.35800       2.7881810     0.014734568
       586.00000       292.15880       98655.925       12998.258       2.6812500       2.4545000     -0.53500000       344.07800       2.4930698     0.013131627
       590.99997       292.14907       98648.942       12950.534       3.2825000       2.2602500     -0.56975000       343.25100       3.0594684     0.015531954
       596.99998       292.15688       98636.188       12913.900       2.9575000       1.9452500     -0.32325000       343.70700       2.4440390     0.015898588
       601.99999       292.15311       98632.394       12900.567       1.9220000       1.3912500    -0.078500000       344.12500       2.4048838     0.013012736
