MIRICO/SHELL project - Processed LDS file generated on
Fri Jul 14 16:25:27 2017
Time stamp for record start
05/11/2017  13:13:15.0001
Nb of points in the record
         612
Beam position index
       3.0000000
Beam angle (degrees)
     -0.92500000
Open Path length (m)
       44.550000
****************** Temporal data record ************************
Elapsedtime_sec Temp_K Press_Pa Humidity_ppmv WindX_m/s WindY_m/s WindZ_m/s Speedofsound_m/s CH4vmr_ppmv CH4vmrerror_ppmv  
      0.00000000       293.63947       98657.527       13767.257       4.2937500       3.7992500     -0.55500000       343.65400       3.0422658     0.031382110
       4.9999729       293.53956       98631.181       13806.179       3.6040000       2.8625000      0.24600000       345.01500       2.8542119     0.037045821
       9.9999860       293.50000       98621.646       13820.302       4.6257500       1.5280000      -1.0560000       344.69700       2.8735213     0.030029426
       15.999994       293.44826       98619.074       13777.226       6.6690000       2.7495000     -0.57950000       343.22500       2.4903401     0.028248918
       21.000007       293.38888       98622.748       13741.852       3.4870000       1.5132500    -0.050750000       344.61200       2.7988685     0.034806763
       25.999980       293.33407       98648.782       13697.869       6.0645000      0.88100000      0.66175000       344.76500       3.4211114     0.037512523
       30.999993       293.29421       98659.276       13636.326       4.6142500       1.6592500      0.64725010       343.86200       3.4154063     0.035552353
       36.000006       293.16416       98668.069       13514.427       5.1972500       1.2005000   -0.0035000000       343.98600       3.7515097     0.025431839
       40.999979       293.17147       98668.419       13473.255       3.3327500      0.23400000       1.2195000       344.90000       2.6438397     0.034452265
       45.999992       293.30997       98650.890       13455.831       2.6822500       3.5567500     -0.16725000       344.67200       2.8449165     0.037050839
       51.000005       293.41281       98642.948       13455.312       3.4277500       1.7260000     -0.16800000       345.16200       2.4834950     0.025221340
       55.999978       293.61558       98629.055       13528.441       4.0192500       1.4710000     -0.65100000       345.60800       2.6131120     0.035019381
       60.999991       293.74071       98626.900       13585.904       3.2792500       4.0340000     -0.39175000       344.41900       2.3982775     0.021256423
       66.000004       293.85808       98640.299       13655.524       5.0392500       4.0027500     -0.62050000       342.91400       2.4953245     0.029029116
       70.999977       293.88097       98646.314       13699.654       3.0325000       2.4115000      0.24425000       344.66800       2.9938958     0.039809086
       75.999990       293.82954       98660.181       13767.787       3.8750000       2.6592500     -0.81025000       344.51300       4.1871018     0.036795971
       81.000003       293.75386       98663.621       13781.789       4.4645000       2.5567500    -0.098000000       343.71100       3.8514978     0.032604497
       85.999976       293.53835       98657.441       13743.040       3.3630000       3.4967500      0.12550000       344.48300       2.6097089     0.019401469
       90.999989       293.40988       98650.007       13694.786       3.0142500       4.4580000     -0.57000010       344.09100       3.6651793     0.015591013
       96.000002       293.27940       98624.881       13588.171       4.8752500       3.7455000     0.094000000       343.27800       3.0667240     0.016410845
       100.99998       293.21525       98620.909       13523.526       5.2095000       2.5842500     -0.42700000       343.85400       2.5452213     0.034142410
       106.99998       293.26920       98629.684       13470.106       3.7117500       1.9285000      0.79800000       345.43800       3.5857595     0.039873910
       112.00000       293.24579       98636.180       13405.955       4.7545000       3.0447500     -0.36775000       343.79200       2.8872758     0.038228488
       116.99997       293.27485       98661.541       13379.953       2.9325000       2.1682500     -0.23550000       344.90900       3.8920332     0.028148869
       121.99998       293.19560       98671.662       13290.984       2.2130000       2.3325000      0.43675000       345.14500       2.8763412     0.031946964
       127.00000       292.98482       98675.010       13141.501       6.2907510       2.3835000      -1.2687500       343.54400       3.0522947     0.038023254
       131.99997       292.84400       98671.206       13013.857       3.5537500      0.46200000    -0.022750000       345.02700       2.3933387     0.032865000
       136.99998       292.57724       98654.828       12802.590       4.0062500       1.2572500      0.20250000       345.66800       3.1011059     0.030247182
       141.99999       292.53864       98646.797       12728.983       2.6885000      0.34325000       1.2820000       344.72900       2.2174509     0.036213555
       147.00001       292.67482       98628.482       12727.465       5.7012500       1.5680000     -0.84600000       343.90200       2.6287283     0.020904286
       151.99998       292.76932       98626.163       12742.721       4.4337500       2.5437500     -0.24300000       343.62900       3.0366418     0.023593618
       156.99999       293.09015       98640.104       12905.009       3.1362500       2.6502500     -0.79575000       344.13900       2.5497223     0.013696532
       162.00001       293.16869       98647.544       12944.645       4.7545000       3.3135000     -0.87125000       343.69900       2.6855939     0.021700546
       166.99998       293.08842       98663.846       12932.135       5.4337500       2.8282500     -0.49600000       343.95600       2.3069495     0.023276111
       171.99999       293.04720       98669.392       12925.002       4.1312500       3.1022500      0.81625000       343.66400       2.5963042     0.030628798
       177.00001       292.84913       98669.806       12820.804       2.5420000       1.9397500      0.51150000       345.61600       2.6216388     0.022434019
       181.99998       292.80703       98665.361       12826.336       2.6475000      0.83075000     -0.18650000       345.16300       2.3576518     0.038884446
       186.99999       292.92043       98649.222       12922.764       2.3102500      0.68800000      0.10500000       345.33700       2.7139966     0.032640527
       192.00000       292.90315       98641.646       12961.316       4.2865000       1.2717500     -0.52200000       342.84700       2.5943297     0.035197730
       197.99997       292.87285       98627.329       13053.712       5.1105000       2.3635000     -0.20525000       343.09000       2.7779101     0.028600333
       202.99999       292.84093       98628.071       13076.098       4.8827500       1.5605000     -0.31775000       343.36000       2.8874884     0.027036484
       208.00000       292.71477       98641.721       13035.662       3.6527500       1.0460000     -0.29775000       344.46100       3.7698293     0.027753340
       212.99997       292.65766       98649.528       13008.229       3.5005000       1.3017500     -0.33300000       344.18300       3.3530442     0.034555163
       217.99998       292.63620       98667.598       12956.319       1.9430000      0.36450000       1.1317500       346.14700       2.5574788     0.027579720
       223.00000       292.64889       98668.939       12939.238       2.4672500      0.95800010      0.30300000       344.74200       3.4652221     0.039340664
       227.99997       292.62959       98658.476       12880.338       4.3365000      0.60300000      0.17825000       345.39700       4.7459534     0.039182887
       232.99998       292.73605       98652.249       12933.080       5.2615000      0.51525000      0.18075000       345.06800       3.3685918     0.043716316
       238.00000       292.99744       98635.112       13082.882       3.9362500      0.38000000      0.66650000       345.02600       2.9255948     0.030192377
       242.99997       293.13995       98630.647       13186.586       3.7175000       1.1335000     -0.18300000       344.88200       2.9733133     0.037553350
       247.99998       293.40803       98630.999       13385.594       5.8640000       1.3242500      0.64375000       344.87300       3.6858585     0.028152402
       253.00000       293.39695       98636.567       13453.108       3.2467500       2.2970000      0.53850000       345.00300       3.5527279     0.031405936
       257.99997       293.17905       98652.573       13443.040       4.5247500       1.5220000     -0.45975000       345.02600       4.0139324     0.025778026
       262.99998       293.02305       98659.908       13423.206       2.1850000      0.50700000      0.29825000       343.96500       2.9475395     0.027440323
       267.99999       292.67409       98673.514       13318.168       2.3837500       1.6020000      0.76850000       346.29400       3.5116403     0.039647092
       272.99997       292.53084       98672.819       13273.413       2.3995000       2.8562500    -0.071000000       344.72300       2.3855933     0.032540634
       277.99998       292.47895       98658.729       13238.506       3.3112500       2.6757500      0.50950000       345.06000       3.4670171     0.046038582
       282.99999       292.47056       98651.124       13205.878       2.8035000       1.6717500      0.26350000       344.58400       2.2789377     0.038703269
       289.00000       292.57398       98631.983       13191.304       3.8417500       5.4610000      0.00000000       342.44100       2.5024714     0.044660253
       293.99997       292.65082       98632.128       13170.956       2.9912500       2.9077500     -0.19375000       344.55100       2.4352365     0.041592850
       298.99999       292.76755       98642.472       13136.260       3.7125000       4.4712500     -0.49325000       343.36700       2.4194733     0.037055732
       304.00000       292.88706       98649.290       13123.769       1.6972500       3.0952500      0.22875000       345.44200       2.4309334     0.045922696
       308.99997       293.02501       98665.639       13111.931      0.37675000       2.8367500     0.090250010       344.55100       2.4105116     0.042838380
       313.99999       293.14555       98671.100       13135.209       2.4180000       4.3232500      0.29425000       344.16200       2.6438371     0.046004393
       319.00000       293.30391       98673.418       13199.526       3.1405000       1.5625000      0.41125000       344.31000       3.3949356     0.046935047
       323.99997       293.37847       98669.027       13215.057       3.7942500       2.9465000     -0.41125000       344.10800       2.7915381     0.046641103
       328.99999       293.40556       98657.364       13217.181       3.9557500       4.5055000     -0.20925000       344.68400       2.5094630     0.041602408
       334.00000       293.42772       98649.522       13265.072       2.8495000       1.8525000    -0.044000000       344.71900       2.3323960     0.033625136
       338.99997       293.42780       98631.970       13308.528       2.8145000       1.3047500     -0.25450000       345.61200       3.5207515     0.032143775
       343.99998       293.37052       98632.317       13349.468       4.7735000       1.2902500       1.9965000       345.19000       3.2535990     0.036720916
       349.00000       293.27054       98643.079       13459.894       2.6715000       1.7232500   -0.0032500000       344.07400       3.7911923     0.025515829
       353.99997       293.19145       98649.888       13459.678       4.0577500       2.2222500      0.15975000       344.17400       2.8213674     0.049375738
       358.99998       293.07834       98666.706       13394.272       3.6520000       1.8270000      0.73350010       345.11300       4.7885814     0.045251019
       364.00000       292.94959       98670.196       13316.942       3.6785000      0.99525000     -0.29250000       344.03800       2.3270442     0.043239138
       368.99997       292.82933       98667.800       13190.587       2.3337500       2.5847500      0.45175000       345.89600       2.3616229     0.043515139
       373.99998       292.70127       98663.160       13094.157       3.1502500    -0.040500000      0.88550000       344.89200       2.4715877     0.046305143
       379.99999       292.50723       98650.215       12961.127       4.7385000       3.8522500     -0.73850010       343.95500       2.6097773     0.050735080
       385.00000       292.32744       98643.223       12855.842       2.9962500      0.79050000      0.57200000       345.52600       3.0452260     0.033092340
       389.99998       292.13584       98633.676       12753.386       4.2902500       1.6042500      0.27400000       344.96400       3.3718577     0.053994476
       394.99999       292.03875       98632.117       12688.185       3.6822500       2.6342500     0.010250000       344.76200       2.1603911     0.035863987
       400.00000       291.89054       98632.861       12607.557       4.7105000       3.5510000      0.66700010       344.14100       2.3076206     0.020985629
       404.99998       292.12279       98647.841       12679.466       3.4415000       1.7832500    -0.083750000       344.81200       2.7412070     0.038806628
       409.99999       292.25422       98656.058       12720.404       6.4622500       2.9370000     -0.43075000       343.26200       3.1078272     0.037301366
       415.00000       292.47126       98670.389       12791.329       3.0050000       2.4040000    -0.038250000       343.64700       2.9936253     0.037689554
       419.99997       292.58751       98674.081       12852.208       3.3915000       2.4000000      0.17675000       344.44800       2.6549103     0.039812883
       424.99999       292.62991       98670.385       12903.508       3.5890000       3.5087500      0.52250000       343.88300       2.2597504     0.038318080
       430.00000       292.55032       98656.354       12925.420       2.6605000      0.64800000      0.97300000       345.22100       2.7818213     0.038605980
       434.99997       292.56001       98648.148       12980.531       5.4192500      0.24850000     -0.81675000       344.80200       2.2933712     0.021481521
       439.99999       292.55576       98631.727       13055.206       3.0492500       3.6232500      0.95600000       346.40300       2.4989821     0.038006999
       445.00000       292.55370       98639.496       13127.864       4.6985000       2.1987500     -0.54200010       343.75300       3.1909037     0.038172991
       449.99997       292.51746       98644.258       13153.998       5.2865000       3.1385000      0.11325000       344.54000       3.2644247     0.045532113
       454.99999       292.33843       98658.879       13100.295       4.0380000       1.7855000     -0.30175000       343.20600       3.2901786     0.043838082
       460.00000       292.27451       98667.125       13092.846       3.3227500       3.1375000     0.054750000       344.07000       3.0961267     0.037514179
       464.99997       292.30498       98673.299       13098.563       2.2842500       1.0007500       1.3135000       344.60000       3.4160747     0.031627193
       470.99998       292.29287       98672.115       13080.524       3.5695000       2.0470000      0.58350000       344.65600       3.2130236     0.031380186
       475.99999       292.36256       98661.980       13111.973       3.5200000       1.2970000     -0.15175000       344.50600       2.7042898     0.041055608
       481.00001       292.36879       98654.886       13092.582       2.3305000      0.23350000    -0.074250010       345.59600       2.5473710     0.046903808
       485.99998       292.29069       98638.616       13005.526       2.5365000       1.5940000     -0.13425000       345.24500       2.9915361     0.044969657
       490.99999       292.24049       98632.083       12944.431       4.0075000       3.9840000      0.31400000       344.25200       2.5941463     0.044909834
       496.00001       292.16100       98630.475       12838.567       3.9300000       1.0820000      0.64375000       346.01100       2.7183527     0.022312045
       500.99998       292.13266       98633.883       12805.045       3.7515000       2.2457500      0.68600000       345.06600       2.7049025     0.032003004
       505.99999       292.11567       98649.459       12812.972       4.4202500       1.4415000      0.89550010       344.55600       3.2018877     0.036992652
       511.00000       292.13952       98657.194       12840.648       3.5832500       1.4920000      0.36500000       344.52700       3.5694829     0.032899331
       515.99998       292.27187       98667.305       12960.877       3.9580000      0.51450000      0.31775000       344.84100       3.1158471     0.019266294
       520.99999       292.31916       98672.836       13022.339       3.4847500       1.1507500     -0.56175010       344.94700       3.1709750     0.031576697
       526.00000       292.34578       98671.771       13046.765       3.1395000     -0.31675000     -0.21700000       345.05700       3.1787864     0.034278339
       530.99998       292.36350       98670.696       13101.273       2.7390000      0.59375000      0.71375000       345.04600       3.1461520     0.045601470
       535.99999       292.30956       98670.953       13155.981       4.0805000      0.60600000     0.089250010       344.64700       3.0498435     0.041476928
       541.00000       292.29062       98665.555       13198.292      0.52025000       2.2952500       1.3142500       344.71600       3.0490760     0.036062524
       545.99998       292.32813       98646.708       13301.300       3.7552500       3.3470000     -0.88975010       343.22200       3.2787671     0.047611585
       550.99999       292.30538       98642.302       13318.919       4.3105000       3.1982500     -0.15950000       343.09900       2.5079272     0.046169626
       557.00000       292.21094       98641.743       13229.008       3.6445000       2.2725000      0.81975000       343.90600       2.4049743     0.041072201
       561.99997       292.18474       98644.149       13199.739       1.6112500       2.3922500       1.0772500       344.76200       2.3803715     0.042246085
       566.99998       292.16039       98663.871       13164.382       2.9422500       2.6372500     -0.87975000       343.38100       2.7694169     0.048157892
       572.00000       292.13411       98669.359       13113.091       4.5862500       2.6787500     -0.59550010       342.83500       2.9129915     0.043348861
       576.99997       292.14379       98668.654       13072.641       3.5455000       2.3490000      0.67875000       343.41900       2.3181620     0.044602331
       581.99998       292.15402       98665.601       13041.590       1.2102500       1.3495000      0.35650000       344.40100       2.8392974     0.043535763
       586.99999       292.15687       98654.523       12988.005       3.1792500       1.6297500     -0.80125000       343.46300       2.2487833     0.043195295
       591.99997       292.14710       98647.554       12942.052       2.6775000       1.7440000     -0.40950000       343.65600       3.2062709     0.043044472
       596.99998       292.15688       98636.188       12913.900       2.1650000       1.9390000     -0.61725000       343.73100       3.1492217     0.044480500
       601.99999       292.15311       98632.394       12900.567       2.3062500       2.0010000     0.054250000       343.90900       2.9865466     0.041494575
