MIRICO/SHELL project - Processed LDS file generated on
Fri Jul 14 14:58:08 2017
Time stamp for record start
05/11/2017  13:13:11.0000
Nb of points in the record
         613
Beam position index
       4.0000000
Beam angle (degrees)
    -0.023000000
Open Path length (m)
       98.010000
****************** Temporal data record ************************
Elapsedtime_sec Temp_K Press_Pa Humidity_ppmv WindX_m/s WindY_m/s WindZ_m/s Speedofsound_m/s CH4vmr_ppmv CH4vmrerror_ppmv  
      0.00000000       293.59050       98663.136       13712.460       2.7662500       1.6465000      0.26750000       344.63900       3.0979133     0.021478367
       5.0000131       293.64411       98655.632       13777.962       4.5745000       3.3590000     -0.59125000       343.65000       2.8672590     0.015175170
       9.9999860       293.53165       98628.684       13811.306       3.3140000       2.9480000     -0.36275000       343.96600       3.0689228     0.017436544
       14.999999       293.49210       98620.624       13819.681       5.8465000       1.7377500     -0.11775000       344.64600       2.7728807     0.016429998
       20.000012       293.44826       98619.074       13777.226       5.1042500       3.9737500     -0.18750000       343.60300       2.9308367     0.016215381
       25.000025       293.38888       98622.748       13741.852       3.3227500       2.3885000      0.61350010       344.57600       2.8597402     0.017097336
       29.999998       293.33407       98648.782       13697.869       4.7720000      0.82375000      0.91675000       344.49400       2.7911351     0.015548154
       35.000011       293.29421       98659.276       13636.326       4.5992500      0.65000000     0.080750000       344.18800       3.0841735     0.022752442
       40.000024       293.16416       98668.069       13514.427       4.2632500      0.74350010      0.40975000       344.48100       3.0714511     0.020163260
       44.999997       293.17147       98668.419       13473.255       4.9772500       1.1172500     0.055000000       344.18100       3.1408196     0.017493877
       50.000010       293.30997       98650.890       13455.831       2.6862500       1.2965000      0.12975000       345.39400       2.7455507     0.017863628
       55.000024       293.41281       98642.948       13455.312       3.6375000      0.58650000     0.086750000       345.03700       2.5088595     0.019161289
       59.999996       293.61558       98629.055       13528.441       3.5277500       1.9580000      0.31850000       345.70100       3.2571687     0.016615317
       65.000010       293.74071       98626.900       13585.904       3.4837500       4.2237500      0.62050000       345.15700       2.6125422     0.018004962
       71.000017       293.86769       98641.494       13665.003       4.4867500       3.2742500     -0.14250000       343.34600       2.7369223     0.016844048
       75.999990       293.87800       98647.528       13707.486       2.3942500       2.6062500      0.82750000       345.10900       2.7878948     0.017782815
       81.000003       293.81841       98661.369       13773.490       3.3322500       2.6017500    -0.079750000       344.59700       3.2711867     0.017839192
       86.000016       293.73272       98663.559       13780.225       5.0295000       2.9337500      -1.0177500       344.37000       2.9699811     0.017737355
       90.999989       293.51053       98656.251       13735.103       3.2967500       3.6422500     -0.38050000       343.98500       2.7104765     0.018038714
       96.000002       293.38737       98648.075       13682.599       2.8215000       2.9055000      0.62350000       344.82200       2.8330649     0.021816794
       101.00002       293.26263       98623.398       13574.378       3.9515000       1.8807500       1.1330000       344.38100       2.5139453     0.018913835
       105.99999       293.20833       98621.148       13511.886       5.6910000       2.8052500     -0.39275000       344.08300       2.5841431     0.017915542
       111.00000       293.26920       98629.684       13470.106       3.5385000       1.3080000     0.054750000       344.85500       2.5084562     0.015974443
       116.00001       293.24579       98636.180       13405.955       4.7395000       2.2535000     -0.51600000       343.44600       2.7584842     0.015446370
       120.99999       293.27485       98661.541       13379.953       3.2717500       2.8097500     -0.30450000       345.16600       3.6713431     0.018340342
       126.00000       293.19560       98671.662       13290.984       2.4757500       2.1197500      0.19700000       345.02000       2.8750662     0.016028275
       131.00001       292.98482       98675.010       13141.501       4.8877500       3.2322500      -1.5995000       343.47800       2.6779488     0.016081739
       135.99999       292.84400       98671.206       13013.857       3.2425000      0.66700010      0.14000000       345.67300       2.6512658     0.017709006
       141.00000       292.57724       98654.828       12802.590       4.7435000       1.7805000     -0.13300000       345.02800       3.3999199     0.015756688
       146.00001       292.53864       98646.797       12728.983       3.9977500       1.4412500      0.39150000       345.13200       2.7109097     0.014662261
       151.00003       292.67482       98628.482       12727.465       4.7707500       1.1330000     -0.23975000       343.45200       2.7892694     0.025370952
       156.00000       292.76932       98626.163       12742.721       4.6822500       1.7397500      0.84475000       344.18600       3.1411320     0.019773051
       162.00001       293.11389       98641.482       12916.031       3.5362500       3.8972500    -0.076250000       343.59700       3.0740323     0.023756193
       167.00002       293.17235       98649.197       12947.929       3.9870000       2.6230000     -0.35925000       343.76200       2.5677580     0.013078294
       171.99999       293.08319       98665.358       12932.373       4.0085000       2.8970000    -0.053250000       344.34000       2.4909675     0.015490739
       177.00001       293.03445       98669.898       12921.076       3.8080000       3.1427500     -0.14625000       343.61900       2.6289552     0.016363625
       182.00002       292.83562       98669.316       12818.271       3.3242500       3.0722500      0.12000000       344.75800       2.4600016     0.016763719
       186.99999       292.80624       98663.873       12832.910       2.8905000      0.47850000      0.21300000       345.48100       2.3782024     0.019497233
       192.00000       292.91894       98647.608       12930.438       2.8657500      0.44375000     0.025750000       345.49400       2.8471084     0.018956111
       197.00002       292.89675       98640.280       12969.071       4.5967500       1.7217500     -0.12575000       342.93400       2.6261669     0.013502039
       201.99999       292.87285       98627.329       13053.712       4.8330000       1.7730000     -0.64850000       343.03200       2.7871619     0.011948044
       207.00000       292.84093       98628.071       13076.098       4.5402500       1.0720000     -0.33250000       343.41500       2.5546632     0.015487629
       212.00002       292.71477       98641.721       13035.662       2.8865000      0.47600000      0.83225010       344.70900       2.9855773     0.015809634
       216.99999       292.65766       98649.528       13008.229       4.7750000       1.5710000      0.20950000       343.68500       3.0142901     0.019745106
       222.00000       292.63620       98667.598       12956.319       1.5892500       1.0925000      0.56800000       344.58000       2.4798517     0.017928356
       227.00002       292.64889       98668.939       12939.238       2.8310000     0.053250000   -0.0010000000       344.89400       2.8605269     0.011062780
       231.99999       292.62959       98658.476       12880.338       3.9532500      0.55725000      0.20150000       345.27600       3.1670123     0.018157113
       237.00000       292.73605       98652.249       12933.080       4.6727500     -0.77150010     -0.28900000       344.27300       2.4538769     0.016232191
       242.00002       292.99744       98635.112       13082.882       4.6542500     -0.89075010     0.084750000       344.36100       2.4093131     0.015375356
       246.99999       293.13995       98630.647       13186.586       4.9072500      0.80875000     -0.47750000       344.11000       2.5247789     0.015522917
       253.00000       293.41692       98631.707       13403.691       5.7407500     -0.33500000      0.50700000       344.06100       2.7936048     0.017309001
       258.00001       293.37808       98638.289       13459.641       2.8295000      0.30175000      0.37625000       345.05500       2.7369827     0.015477970
       263.00002       293.15186       98654.140       13442.042       4.6552500       1.3615000    -0.064500000       342.97900       2.9595202     0.013153434
       267.99999       292.98584       98661.225       13414.783       2.7792500    -0.019250000      0.25100000       344.19500       2.9141147     0.014605877
       273.00001       292.63927       98673.982       13308.333       1.9530000       1.7197500      0.60500000       345.35300       2.9848350     0.017998759
       278.00002       292.51145       98671.770       13265.826       2.0825000       1.9345000      0.37775000       345.68300       2.5086471     0.013646592
       282.99999       292.47235       98657.307       13231.302       4.9212500       2.9295000     -0.20775000       345.38900       2.8646678     0.022061832
       288.00001       292.47626       98649.455       13200.356       2.0890000       3.0920000      0.11625000       345.34100       2.5782306     0.014495330
       293.00002       292.57398       98631.983       13191.304       3.4487500       5.1497500     -0.32025000       342.49200       2.2947569     0.014795726
       297.99999       292.65082       98632.128       13170.956       3.5825000       4.6725000    0.0047500000       343.82900       2.7689510     0.019911622
       303.00001       292.76755       98642.472       13136.260       5.0582500       2.0560000     -0.18100000       343.91000       2.6329108     0.014419946
       308.00002       292.88706       98649.290       13123.769       1.7822500       1.6880000      0.41800000       345.39300       2.6689205     0.014018093
       312.99999       293.02501       98665.639       13111.931       1.7142500       3.0665000     0.071500000       345.86900       2.3740699     0.014800567
       318.00001       293.14555       98671.100       13135.209       2.9592500       2.6785000     -0.49350000       344.51300       2.9748547     0.017088942
       323.00002       293.30391       98673.418       13199.526       2.5305000       2.7050000    -0.098750000       344.88100       3.2082793     0.022029741
       327.99999       293.37847       98669.027       13215.057       4.1227500       2.4402500     -0.16500000       343.84100       2.7556402     0.020861978
       333.00000       293.40556       98657.364       13217.181       2.8547500       2.6735000     -0.26850000       344.42600       2.5652232     0.014739670
       338.00002       293.42772       98649.522       13265.072       5.2685000      0.73900000     0.036750000       344.19300       2.5816760     0.012310691
       344.00003       293.41939       98631.434       13316.056       3.0397500       1.0490000    -0.037750000       345.28500       3.1491103     0.019611877
       349.00000       293.35448       98633.293       13358.615       6.1945000       2.5715000     -0.27800000       342.99400       2.8152136     0.015764682
       354.00001       293.25573       98644.241       13463.705       3.9530000       4.2747500     -0.47850000       344.50900       2.8524673     0.026617568
       359.00002       293.17282       98660.253       13434.068       5.4900000       1.1407500     -0.29800000       343.82900       2.6758104     0.015873978
       364.00000       293.05354       98667.811       13381.242       3.0230000       1.4512500      0.70725010       344.63800       3.0991788     0.012878785
       369.00001       292.92289       98668.832       13265.368       3.7905000       1.0457500      0.55650000       344.86400       2.8538381     0.023082127
       374.00002       292.80471       98667.170       13171.562       3.0012500       3.0377500      0.46900000       343.64500       2.7559728     0.016900131
       379.00000       292.67473       98657.208       13068.466       4.6675000       1.5307500     -0.14250000       343.83900       2.6008530     0.018234158
       384.00001       292.50723       98650.215       12961.127       3.2012500       3.3155000     -0.34500000       344.82100       2.4738016     0.018602975
       389.00002       292.32744       98643.223       12855.842       4.6092500       4.2150000      0.24725000       343.65300       2.5633714     0.017342680
       394.00000       292.13584       98633.676       12753.386       4.2952500       2.5680000      0.24950000       344.79300       2.8807949     0.015204356
       399.00001       292.03875       98632.117       12688.185       3.1535000       1.9495000      0.30700000       345.25100       2.4239344     0.018743876
       404.00002       291.89054       98632.861       12607.557       4.8475000       1.4397500    -0.019000000       344.30300       2.2335761     0.020571515
       408.99999       292.12279       98647.841       12679.466       3.2610000       1.6105000      0.38875000       345.36200       2.9353579     0.016364133
       414.00001       292.25422       98656.058       12720.404       4.9235000       2.4957500      -1.1055000       342.80400       2.8760762     0.020034306
       419.00002       292.47126       98670.389       12791.329       3.8972500       1.8657500      0.28275000       343.60400       2.5891857     0.016514503
       423.99999       292.58751       98674.081       12852.208       1.5575000       1.7610000      0.46350000       344.74200       2.5694778     0.020386119
       429.00001       292.62991       98670.385       12903.508       4.1480000       3.7070000      -1.6017500       343.93600       2.2942244     0.021156627
       435.00001       292.55228       98654.823       12935.680       5.2752500       2.4200000      0.27050000       344.64200       2.4244200     0.016356904
       439.99999       292.57207       98635.683       13013.196       5.3930000      0.56025000     -0.88875000       344.92400       2.2201187     0.017866632
       445.00000       292.55043       98631.494       13064.856       3.1372500       3.2895000    -0.086500000       343.80700       2.1665021     0.023119001
       450.00001       292.54944       98640.256       13135.664       4.1350000       2.8497500      0.72175000       344.55700       2.7657291     0.021312734
       454.99999       292.50573       98645.499       13155.358       6.1237500       2.2580000     -0.52775000       342.73400       2.7600155     0.019437736
       460.00000       292.32171       98660.824       13098.253       3.5445000       1.0367500     -0.38900000       343.25300       3.2548278     0.019365757
       465.00001       292.26763       98668.331       13092.201       4.3920000       2.9087500     -0.48100000       344.12400       2.8706180     0.021217706
       470.00003       292.30174       98673.594       13095.324       3.1862500       2.5222500      0.79125010       344.87900       3.1259081     0.017778089
       475.00000       292.29287       98672.115       13080.524       5.2540000       3.2620000     -0.65900000       343.11500       2.9604245     0.018080304
       480.00001       292.36256       98661.980       13111.973       2.3895000       1.0410000      0.33450000       345.21000       2.5669526     0.019959380
       485.00002       292.36879       98654.886       13092.582       2.7412500       1.2672500     -0.19175000       345.28100       2.7136592     0.014245219
       490.00000       292.29069       98638.616       13005.526       3.2030000      0.62450000    -0.074500000       345.30300       2.6924178     0.018866788
       495.00001       292.24049       98632.083       12944.431       4.6340000       3.1782500      0.94825010       345.74100       2.6982841     0.017999093
       500.00002       292.16100       98630.475       12838.567       5.1112500       2.2050000     -0.10200000       344.84500       2.7531653     0.018747658
       505.00000       292.13266       98633.883       12805.045       4.8905000       2.1882500    0.0087500000       343.32000       2.6857607     0.023913439
       510.00001       292.11567       98649.459       12812.972       4.1312500       2.1447500     -0.86525010       343.22400       3.0888242     0.016895149
       515.00002       292.13952       98657.194       12840.648       3.3210000       1.1085000     -0.46200000       344.88400       3.0658025     0.016653005
       520.00000       292.27187       98667.305       12960.877       4.6815000       1.0815000      0.91500000       345.19300       2.9928818     0.017199856
       526.00000       292.32566       98673.489       13032.651       3.7735000       1.7917500     -0.52475010       344.41000       2.7674832     0.017873596
       531.00002       292.35133       98671.655       13057.439       2.3520000      0.62275000     -0.23000000       344.96600       2.3446865     0.015049001
       535.99999       292.36404       98670.332       13112.509       1.5427500       1.3300000      0.29875000       345.57900       3.2324338     0.019426452
       541.00000       292.30476       98670.171       13164.319       3.9757500      0.87250010      0.38450000       344.31400       3.2379095     0.017726869
       546.00002       292.28836       98664.028       13206.947       2.5490000       2.0502500     0.047750000       345.15900       3.1343940     0.018171919
       550.99999       292.32555       98645.433       13308.589       2.8382500       1.9995000      -1.3675000       343.37800       3.0017301     0.016747765
       556.00000       292.29788       98642.011       13316.798       3.5427500       3.7725000     -0.66875000       342.92500       2.7426735     0.013609820
       561.00001       292.21094       98641.743       13229.008       5.2597500       2.5370000      0.29925000       343.62300       2.6836548     0.016814135
       565.99999       292.18474       98644.149       13199.739       1.8185000      0.84250000      0.52900000       344.60600       2.4398436     0.016139301
       571.00000       292.16039       98663.871       13164.382       2.9407500       1.7130000     -0.34400000       343.75500       2.9698357     0.011398853
       576.00001       292.13411       98669.359       13113.091       3.8047500       2.8762500     -0.55350000       343.12800       2.7340774     0.014909294
       580.99999       292.14379       98668.654       13072.641       3.4215000       1.3020000     -0.48600000       343.32700       3.0518444     0.027485752
       586.00000       292.15402       98665.601       13041.590       2.7542500       2.4807500     -0.25375000       344.06500       2.7097189     0.021106257
       591.00001       292.15687       98654.523       12988.005       3.0052500       1.6382500     -0.58050000       343.43600       2.6756767     0.020037712
       595.99999       292.14710       98647.554       12942.052       2.9990000       1.1735000     -0.14775000       343.47300       3.2611450     0.017419618
       601.00000       292.15688       98636.188       12913.900       2.0507500       1.7495000     -0.68075000       343.79500       2.9847648     0.029996390
