MIRICO/SHELL project - Processed LDS file generated on
Fri Jul 14 15:12:45 2017
Time stamp for record start
05/11/2017  13:13:11.0000
Nb of points in the record
         613
Beam position index
       5.0000000
Beam angle (degrees)
       8.5390000
Open Path length (m)
       83.010000
****************** Temporal data record ************************
Elapsedtime_sec Temp_K Press_Pa Humidity_ppmv WindX_m/s WindY_m/s WindZ_m/s Speedofsound_m/s CH4vmr_ppmv CH4vmrerror_ppmv  
      0.00000000       293.59050       98663.136       13712.460       2.6915000       2.0657500      0.38575000       345.28100       3.1540907     0.036424700
       5.0000131       293.64411       98655.632       13777.962       5.0670000       3.7660000     -0.24750000       343.81800       3.4378517     0.035652937
       9.9999860       293.53165       98628.684       13811.306       2.6252500       2.4167500      0.16800000       344.55000       3.4587956     0.033827247
       14.999999       293.49210       98620.624       13819.681       3.6532500       1.8932500      0.19850000       344.47500       3.2291393     0.036847684
       20.000012       293.44826       98619.074       13777.226       6.2150000       4.1440000      -1.0320000       343.00000       3.3855720     0.038014404
       25.000025       293.38888       98622.748       13741.852       5.3427500       3.0562500     -0.34425000       344.29500       3.2322419     0.036768135
       29.999998       293.33407       98648.782       13697.869       4.9687500       2.8592500     -0.24225000       344.32600       4.6535939     0.038930670
       36.000006       293.28616       98660.780       13622.575       5.0332500       3.0510000      0.18575000       344.16100       3.8585549     0.039519650
       41.000019       293.15961       98668.738       13503.700       3.8992500       1.4647500       1.0575000       345.14000       3.7970618     0.036726537
       45.999992       293.18196       98667.590       13468.733       3.4182500       1.5432500      0.33575000       345.46900       3.8923095     0.036017651
       51.000005       293.32863       98649.192       13453.117       4.1920000       1.3520000     -0.44900000       343.85600       3.3296853     0.037256859
       56.000018       293.43624       98641.525       13459.132       2.2412500       2.2072500     0.021500000       345.29900       3.6075232     0.041459973
       60.999991       293.64355       98628.033       13539.797       2.3192500       2.4607500     0.044500000       346.33400       2.7281448     0.036235734
       66.000004       293.76132       98627.355       13597.618       4.3322500       4.1987500     -0.25200000       345.18700       2.1490767     0.037505554
       71.000017       293.86769       98641.494       13665.003       5.4542500       3.6947500     -0.21450000       343.31200       2.7682061     0.038400078
       75.999990       293.87800       98647.528       13707.486       2.8395000       3.8587500     -0.31500000       344.95600       3.1963591     0.040924141
       81.000003       293.81841       98661.369       13773.490       4.8130000       2.5902500     -0.11575000       344.69400       3.0775563     0.039641648
       86.000016       293.73272       98663.559       13780.225       4.5715000       2.1667500     -0.38625000       344.63800       2.8869162     0.036808131
       90.999989       293.51053       98656.251       13735.103       1.5570000       3.2327500       1.6925000       345.68100       2.6651970     0.039001298
       96.000002       293.38737       98648.075       13682.599       3.4825000       2.9190000     -0.59200000       345.24600       3.3235376     0.034722947
       101.00002       293.26263       98623.398       13574.378       4.3732500       4.6525000     0.048250000       343.43100       3.9844588     0.032856053
       105.99999       293.20833       98621.148       13511.886       3.0645000       2.7035000     -0.61125000       344.17800       3.1635748     0.038429819
       111.00000       293.26920       98629.684       13470.106       4.2402500       2.7502500     -0.26475000       343.70400       3.7122411     0.037521978
       116.00001       293.24579       98636.180       13405.955       5.0355000       1.4715000     -0.77700000       343.63400       3.6135515     0.040455020
       120.99999       293.27485       98661.541       13379.953       2.9030000       2.8870000     -0.30775000       345.35400       2.5750290     0.039920473
       127.00000       293.17209       98672.938       13269.168       2.5105000      0.99375000    -0.079000000       345.22300       3.3090646     0.037944212
       132.00001       292.95665       98674.750       13116.533       5.8947500       4.1127500    -0.022500000       344.21000       2.9281545     0.036027689
       137.00002       292.81585       98669.694       12987.494       5.2720000       1.3242500     -0.57750000       344.39200       4.8892268     0.041148356
       141.99999       292.56037       98653.209       12782.815       4.8265000       2.4430000     -0.21175000       345.24300       3.0247227     0.036324008
       147.00001       292.54464       98645.209       12721.791       3.1262500       1.4917500      0.11425000       345.14000       2.9292137     0.036866554
       152.00002       292.68979       98627.329       12726.779       4.2500000      0.49000000      0.29500000       344.78900       2.6625747     0.035582425
       156.99999       292.79412       98626.733       12751.387       5.4577500       2.4310000      0.53425000       343.64700       4.6316494     0.037222717
       162.00001       293.11389       98641.482       12916.031       3.1682500       3.2250000     0.011750000       344.32600       2.7729040     0.035499566
       167.00002       293.17235       98649.197       12947.929       4.2020000       2.1447500      0.21150000       344.00000       3.0882129     0.035615856
       171.99999       293.08319       98665.358       12932.373       4.7445000       2.1055000      -1.4945000       343.80400       2.6729180     0.036897561
       177.00001       293.03445       98669.898       12921.076       4.3780000       2.7585000     0.060250000       344.11500       3.4192127     0.038464564
       182.00002       292.83562       98669.316       12818.271       3.5762500       1.5990000      0.52725010       345.74700       3.5960788     0.039321801
       186.99999       292.80624       98663.873       12832.910       2.3497500      0.44575000      0.63000010       345.97500       3.3282211     0.034817287
       192.00000       292.91894       98647.608       12930.438       2.8202500      0.21200000      0.12575000       345.82700       2.5800835     0.034432230
       197.00002       292.89675       98640.280       12969.071       4.5590000       1.8590000     -0.37000000       343.03900       2.8719465     0.031221234
       201.99999       292.87285       98627.329       13053.712       5.4120000       1.9280000     -0.41975000       343.42400       3.2212607     0.031555247
       207.00000       292.84093       98628.071       13076.098       4.8937500       1.3142500      0.24300000       343.82400       3.7416522     0.032540876
       213.00001       292.70134       98643.171       13030.932       2.8672500       1.5297500      0.89200000       344.31700       4.6544540     0.034008280
       218.00002       292.64925       98651.256       13001.615       3.8657500       2.3342500      0.29925000       344.04500       4.6456726     0.036374217
       223.00000       292.63673       98668.466       12952.130       1.8037500      0.64625000      0.96800010       345.26800       4.0027375     0.031008789
       228.00001       292.65444       98668.307       12936.977       3.2860000      -1.7517500      0.61725000       344.52100       3.7491998     0.032819245
       233.00002       292.64488       98657.424       12886.194       4.7792500      0.42900000     -0.15600000       343.97900       3.0948283     0.022999326
       238.00000       292.76633       98650.713       12950.693       3.3752500     -0.80325000      0.33775000       345.53500       2.8712073     0.024362288
       243.00001       293.02692       98633.823       13102.529       3.3367500      0.28700000       1.0735000       344.69900       3.3282834     0.028186442
       248.00002       293.16697       98630.347       13208.985       4.5862500     -0.27925000     -0.50600000       344.26800       4.3144020     0.028122245
       253.00000       293.41692       98631.707       13403.691       5.0722500      0.50200000       1.0905000       344.83000       5.3578575     0.034013291
       258.00001       293.37808       98638.289       13459.641       3.3652500       1.3510000      0.11850000       345.48200       4.6261786     0.039550587
       263.00002       293.15186       98654.140       13442.042       4.7492500       1.8812500     -0.28975000       343.45500       5.7462745     0.046637177
       267.99999       292.98584       98661.225       13414.783       3.5960000       1.0227500     -0.26200000       344.12400       3.2051917     0.032293319
       273.00001       292.63927       98673.982       13308.333       3.7482500       3.2257500     -0.72800000       343.96200       2.7666417     0.024947066
       278.00002       292.51145       98671.770       13265.826       3.2502500       2.0320000      0.71300010       346.41300       3.1865671     0.019312630
       282.99999       292.47235       98657.307       13231.302       3.0385000       3.0782500     -0.39700000       344.50600       2.3612699     0.022335131
       288.00001       292.47626       98649.455       13200.356       3.1092500       3.7427500     -0.33100000       344.74300       2.6750147     0.021199723
       293.00002       292.57398       98631.983       13191.304       3.7650000       5.3550000     -0.32075000       342.76000       3.5603550     0.029650616
       297.99999       292.65082       98632.128       13170.956       3.4885000       4.6657500     -0.51675000       342.57600       2.5820002     0.027391783
       304.00000       292.79036       98643.625       13133.041       3.4447500       3.8432500      0.22350000       344.00500       2.2188922     0.028798868
       309.00001       292.91260       98650.971       13122.349       1.2607500       2.9902500      0.39425000       344.47600       2.4952787     0.017999247
       313.99999       293.04912       98667.031       13114.892       2.3802500       2.3477500      0.24125000       343.94700       2.4417334     0.020427336
       319.00000       293.21637       98673.299       13180.183       2.9447500       2.8895000     -0.11050000       344.51700       2.9648998     0.019449021
       324.00001       293.32192       98672.943       13203.393       2.5027500       3.3145000      0.22100000       344.74700       2.3760335     0.031390987
       328.99999       293.37010       98662.748       13188.464       3.8997500       3.1255000     -0.29575000       344.65900       2.5747951     0.026569043
       334.00000       293.41197       98655.895       13225.693       2.8395000       3.6625000      0.36525000       344.87100       2.5064128     0.028053639
       339.00001       293.42920       98647.806       13276.248       2.1152500       1.9697500      0.17750000       345.49100       3.2828652     0.032949876
       344.00003       293.41939       98631.434       13316.056       3.1257500      0.86275010       1.2300000       346.60000       3.5001166     0.029411029
       349.00000       293.35448       98633.293       13358.615       5.4472500       3.3475000      0.35700000       343.60600       2.8634159     0.028141676
       354.00001       293.25573       98644.241       13463.705       2.3357500       2.0577500    -0.041500000       344.62700       3.3500688     0.028826763
       359.00002       293.17282       98660.253       13434.068       4.7537500       2.7197500     -0.31400000       344.42600       3.1733615     0.019273380
       364.00000       293.05354       98667.811       13381.242       4.6495000       3.4782500     -0.74875000       343.67800       2.7559835     0.026397690
       369.00001       292.92289       98668.832       13265.368       3.1810000       1.4607500      -1.4292500       344.07300       3.0064498     0.024032912
       374.00002       292.80471       98667.170       13171.562       3.1967500       3.6352500     -0.22775000       343.22900       2.2751325     0.024737111
       379.00000       292.67473       98657.208       13068.466       4.5827500       1.5832500      0.22225000       344.71300       2.2489736     0.022856843
       384.00001       292.50723       98650.215       12961.127       2.4865000       1.1455000      0.38625000       344.53600       3.2779391     0.028949612
       389.00002       292.32744       98643.223       12855.842       3.5540000       3.3382500     -0.17125000       343.85800       3.5216558     0.029960831
       394.99999       292.11353       98633.066       12738.916       3.6082500       2.2772500     -0.20000000       345.13500       2.7414729     0.032616975
       400.00000       291.91502       98630.459       12632.750       2.3252500       3.6762500     0.010250000       344.26400       2.3170094     0.020427508
       405.00002       291.89695       98633.963       12606.696       4.6000000       2.7632500    -0.030000000       344.08500       3.2372925     0.026382146
       409.99999       292.14922       98649.595       12687.023       4.7262500       1.2157500      0.77050010       344.55000       2.9282966     0.033334547
       415.00000       292.28030       98657.537       12729.547       4.3907500       2.1862500     -0.90425000       342.79100       3.0132887     0.024800617
       420.00002       292.50042       98671.718       12804.281       4.0160000       1.2645000     -0.20500000       343.34700       3.7242997     0.030486333
       424.99999       292.60190       98673.933       12863.233       3.0787500       2.3807500     -0.39900000       344.67400       3.4311546     0.028762431
       430.00000       292.54237       98661.929       12888.190       3.9712500       1.5702500     -0.18625000       345.37300       3.1266906     0.025670433
       435.00001       292.55228       98654.823       12935.680       4.4407500       1.4967500     -0.91125010       344.62500       4.8363941     0.040152338
       439.99999       292.57207       98635.683       13013.196       3.5192500       1.3680000     -0.26050000       344.95900       3.1127957     0.027776929
       445.00000       292.55043       98631.494       13064.856       6.0612500       3.5455000      0.30025000       344.44000       3.1336583     0.025652152
       450.00001       292.54944       98640.256       13135.664       5.8435000      0.89050010      0.36250000       344.94700       3.0711616     0.026952112
       454.99999       292.50573       98645.499       13155.358       5.3717500       2.3187500     -0.47275000       343.25800       4.4365369     0.033396264
       460.00000       292.32171       98660.824       13098.253       4.8367500       1.4555000      0.32575000       344.10100       3.1298185     0.028609048
       465.00001       292.26763       98668.331       13092.201       3.8472500       2.8672500     -0.27125000       343.76700       3.1019030     0.026825948
       470.00003       292.30174       98673.594       13095.324       3.1420000       2.2597500     -0.23075000       344.65100       2.7441314     0.026612336
       475.00000       292.29287       98672.115       13080.524       4.8632500       3.4757500     -0.88350000       343.35500       3.7170025     0.029760476
       480.00001       292.36256       98661.980       13111.973       4.2362500      0.97675010      0.15475000       344.62600       3.1120734     0.025773710
       486.00002       292.36545       98653.301       13084.912       2.9170000      0.60800000    -0.068000000       345.49500       4.1186958     0.034242895
       490.99999       292.28064       98636.907       12993.338       3.2622500      0.70400010     -0.16950000       345.48500       2.9362521     0.025564922
       496.00001       292.23045       98631.380       12932.167       5.1132500       1.8597500      0.13500000       345.82400       2.5947944     0.024697455
       501.00002       292.15329       98630.758       12828.861       4.8037500       1.8032500     -0.87525000       342.64400       3.4818957     0.025821401
       505.99999       292.13005       98635.163       12802.835       3.2512500       2.9802500     -0.79750000       343.30400       3.5660937     0.026923199
       511.00000       292.11749       98651.106       12815.871       5.4040000       2.1607500      -1.5407500       343.68100       4.1108436     0.034739391
       516.00002       292.14873       98658.591       12850.146       5.7347500       1.7230000      0.30900000       344.11800       3.7329039     0.029143918
       520.99999       292.28330       98668.714       12974.484       2.6512500       1.5645000     -0.49325000       345.23500       3.7611345     0.025709652
       526.00000       292.32566       98673.489       13032.651       3.7542500     0.096500000      0.59650000       345.87400       3.7691157     0.028202336
       531.00002       292.35133       98671.655       13057.439       2.0690000      0.48375000      0.22325000       345.58500       3.8533829     0.030429365
       535.99999       292.36404       98670.332       13112.509       2.2232500      0.39825000     0.068250000       345.48100       3.6364193     0.025425880
       541.00000       292.30476       98670.171       13164.319       3.7390000       1.4845000     -0.89625010       343.76600       3.2919108     0.026243899
       546.00002       292.28836       98664.028       13206.947       3.5987500       2.7802500     -0.57950000       344.11400       3.1293564     0.026034532
       550.99999       292.32555       98645.433       13308.589       3.6222500       1.9645000     -0.75225000       343.76100       3.2891380     0.028908967
       556.00000       292.29788       98642.011       13316.798       3.4370000       4.6712500     -0.37775000       343.98800       2.7915538     0.027851507
       561.00001       292.21094       98641.743       13229.008       4.2522500       1.4527500     -0.26925000       343.86200       2.9601453     0.023609994
       565.99999       292.18474       98644.149       13199.739       4.3335000       2.1210000     -0.32150000       343.35300       2.5500934     0.020665242
       571.00000       292.16039       98663.871       13164.382       2.9677500       1.8965000      0.16775000       343.81600       2.9334696     0.026535377
       577.00001       292.13038       98669.854       13102.782       3.4725000       2.3825000     0.038750000       343.06300       2.3088379     0.025810995
       582.00002       292.14583       98668.344       13066.619       3.2370000       2.4030000     -0.27725000       343.38400       2.5405361     0.023634931
       586.99999       292.15607       98664.540       13035.096       1.6627500       1.9852500     0.013750000       344.24300       2.9588550     0.024072072
       592.00001       292.15493       98653.123       12978.106       2.5677500      0.62750010      0.73625000       344.82400       3.8718111     0.035760877
       597.00002       292.14512       98646.168       12933.922       2.6935000       1.6467500     -0.54650000       343.56900       2.2377845     0.024047380
       601.99999       292.15711       98635.133       12910.725       2.3380000       1.5397500     0.059000000       343.98900       2.9510469     0.029774052
