MIRICO/SHELL project - Processed LDS file generated on
Sat Jul 15 00:44:13 2017
Time stamp for record start
05/11/2017  13:13:12.0000
Nb of points in the record
         613
Beam position index
       6.0000000
Beam angle (degrees)
       13.609000
Open Path length (m)
       58.300000
****************** Temporal data record ************************
Elapsedtime_sec Temp_K Press_Pa Humidity_ppmv WindX_m/s WindY_m/s WindZ_m/s Speedofsound_m/s CH4vmr_ppmv CH4vmrerror_ppmv  
      0.00000000       293.60730       98662.030       13727.947       4.5675000       3.8532500     -0.63125000       343.54600       4.4195179     0.057109545
       5.0000131       293.64572       98653.539       13787.460       4.7200000       3.1937500     -0.13575000       343.79900       3.8383779     0.050253195
       10.000026       293.52373       98626.482       13815.280       2.4175000       1.8122500      0.60325000       344.59600       3.8864552     0.059249717
       14.999999       293.48419       98619.897       13817.914       5.8820000       1.3865000     -0.34275000       344.94000       2.5781666     0.048148212
       20.000012       293.43638       98619.219       13770.963       6.2090000       2.4417500     -0.12075000       343.64600       3.5327141     0.055593630
       25.000025       293.37701       98624.367       13733.563       4.1155000     0.016750000      0.18525000       344.66500       5.0025858     0.061515149
       29.999998       293.32615       98651.278       13686.524       4.7560000       2.8510000     -0.57250010       343.30000       4.3005554     0.060687526
       35.000011       293.28616       98660.780       13622.575       5.0645000      0.66650000      0.39175000       344.39900       3.9889325     0.057283213
       40.000024       293.15961       98668.738       13503.700       6.2252500      0.24250000     -0.13375000       344.63800       4.1976423     0.058067993
       44.999997       293.18196       98667.590       13468.733       1.6652500      0.92675010    -0.044250000       344.86000       3.9419956     0.062383106
       50.000010       293.32863       98649.192       13453.117       4.5042500       1.7407500     -0.13450000       344.13700       3.4904156     0.060789775
       55.000024       293.43624       98641.525       13459.132       4.1555000       1.9145000     -0.16050000       344.43800       3.3855633     0.062827591
       59.999996       293.64355       98628.033       13539.797       3.9982500       1.7632500     -0.21875000       343.34300       2.7745294     0.062439921
       65.000010       293.76132       98627.355       13597.618       3.9047500       2.7517500     -0.55450000       344.63100       4.1186913     0.054891534
       70.000023       293.86769       98641.494       13665.003       5.5527500       3.8302500     -0.41375000       342.64100       3.9373279     0.066462389
       74.999996       293.87800       98647.528       13707.486       4.1672500       2.2570000      0.27225000       344.55400       4.7777873     0.064060306
       80.000009       293.81841       98661.369       13773.490       5.4560000       3.0677500     -0.35575000       344.24200       4.8085679     0.058385347
       86.000016       293.70957       98663.247       13777.201       5.4660000       3.0060000    -0.013000000       344.06200       2.9122652     0.062704736
       91.000029       293.48377       98654.913       13726.301       1.9830000       2.0250000       1.8585000       345.33100       3.1494641     0.047849616
       96.000002       293.36593       98645.995       13669.581       3.3840000       1.5387500       1.0237500       345.84300       4.5303651     0.053160465
       101.00002       293.24783       98622.259       13561.018       5.9180000       2.7982500    -0.089250010       343.97000       3.4493201     0.060804639
       106.00003       293.20337       98621.731       13500.671       3.7912500       2.5045000    -0.089000000       344.13000       4.3055536     0.059938179
       111.00000       293.26549       98630.589       13457.419       3.7472500       1.6702500      0.15450000       343.82300       4.0277810     0.070384338
       116.00001       293.23964       98638.070       13392.914       5.1145000       1.3062500     -0.29575000       344.15500       4.5877619     0.065539303
       121.00003       293.26411       98664.064       13364.859       2.9365000       2.4982500      0.11175000       343.91100       3.4879879     0.057288250
       126.00000       293.17209       98672.938       13269.168       1.2982500       1.6220000      0.60150000       345.70700       4.1743281     0.066053207
       131.00001       292.95665       98674.750       13116.533       5.3407500       1.0580000     -0.67525010       343.83200       3.4926500     0.063774432
       136.00003       292.81585       98669.694       12987.494       4.2737500      0.67225000     -0.48050000       344.55100       4.4185085     0.054943307
       141.00000       292.56037       98653.209       12782.815       5.7070000       1.7365000     -0.13400000       344.58600       3.9528705     0.060369425
       146.00001       292.54464       98645.209       12721.791       3.3990000      0.43625000      0.37300000       344.88600       3.3208508     0.055425297
       151.00003       292.68979       98627.329       12726.779       5.2892500       1.4067500      0.35725000       345.01400       3.8004472     0.054005169
       156.00000       292.79412       98626.733       12751.387       5.4872500       2.4745000     0.035250000       344.42800       4.2991898     0.060106512
       161.00001       293.11389       98641.482       12916.031       4.0405000       1.2297500      0.63750000       345.34900       3.4872032     0.053942526
       166.00002       293.17235       98649.197       12947.929       4.1175000       1.0592500      0.48225000       345.04500       3.0522350     0.056908626
       171.00000       293.08319       98665.358       12932.373       4.9425000      0.53625010      0.60800000       344.92200       4.2956528     0.061219921
       177.00001       293.02019       98670.203       12916.318       3.4185000       1.5642500      0.20350000       344.51100       2.9885429     0.051888630
       182.00002       292.82466       98668.626       12817.557       4.2790000      0.93325010      -1.1557500       344.68200       3.8755517     0.055860058
       186.99999       292.80799       98662.186       12841.312       3.0720000       1.0572500     0.069250000       345.78700       4.5771160     0.055727999
       192.00000       292.91646       98646.044       12938.131       2.6247500      0.70225000      0.16850000       345.96400       3.6778373     0.051419519
       197.00002       292.88937       98638.962       12976.836       5.4402500       1.9425000     -0.34975000       343.23300       3.6744489     0.047282929
       202.00003       292.86843       98626.887       13060.837       4.8317500       2.0522500     -0.17950000       343.35700       3.6854012     0.039405550
       207.00000       292.83159       98629.105       13076.603       4.3810000       1.2847500      0.25700000       343.98300       5.6007748     0.060482215
       212.00002       292.70134       98643.171       13030.932       2.2037500      0.68775000       1.2262500       345.12800       5.6187145     0.057675514
       217.00003       292.64925       98651.256       13001.615       3.8102500       2.5737500     -0.71950000       343.90900       3.2347507     0.052809043
       222.00000       292.63673       98668.466       12952.130       2.2052500      0.89550010     0.089750010       345.28600       3.6463425     0.055491931
       227.00002       292.65444       98668.307       12936.977       4.4620000     -0.76725010      0.54025000       343.76100       5.7515017     0.057078745
       232.00003       292.64488       98657.424       12886.194       4.6285000      0.47325000    -0.029250000       344.29800       4.5980635     0.046492220
       237.00000       292.76633       98650.713       12950.693       4.8322500      -1.4132500      0.62025000       344.50600       3.1248317     0.047262976
       242.00002       293.02692       98633.823       13102.529       5.8050000     -0.20925000      0.22725000       343.93600       3.8185124     0.052769857
       247.00003       293.16697       98630.347       13208.985       4.1452500     -0.84725000      0.57125000       345.16900       4.6749646     0.046349305
       252.00000       293.41692       98631.707       13403.691       3.6802500      0.99925010    -0.088250000       346.19000       4.0581449     0.049492790
       257.00001       293.37808       98638.289       13459.641       4.2352500      0.43025000     -0.41725000       344.68400       3.0067160     0.046666756
       263.00002       293.12267       98655.657       13439.560       4.6842500       2.1637500     -0.13675000       343.15800       3.5984770     0.048553992
       267.99999       292.79707       98670.290       13350.164       3.1200000       1.3675000    -0.079000000       344.12300       3.4232989     0.046162384
       273.00001       292.60753       98674.146       13298.931       3.5485000       2.4890000     -0.86225000       343.91700       3.7982620     0.046887654
       278.00002       292.51351       98662.698       13262.168       2.2032500       2.5787500     -0.41200000       344.57100       5.0966573     0.045310810
       282.99999       292.46821       98655.835       13224.440       2.6465000       3.2337500      0.19400000       345.25400       3.7347745     0.044205773
       288.00001       292.53025       98637.187       13206.736       2.8670000       3.3317500      0.26575000       345.10000       2.7623104     0.038404029
       293.00002       292.58738       98631.421       13187.339       3.5330000       4.1980000     -0.16025000       343.26500       3.0417081     0.047545664
       297.99999       292.66914       98633.044       13166.713       3.4725000       5.0810000     -0.52175000       342.97800       3.0408416     0.046093989
       303.00001       292.79036       98643.625       13133.041       5.4287500       3.3102500     -0.34200000       343.71100       2.9211873     0.041103806
       308.00002       292.91260       98650.971       13122.349       2.5795000       1.9152500    -0.048250000       344.79900       3.3309269     0.037891586
       312.99999       293.04912       98667.031       13114.892       2.0002500       4.2767500      0.32400000       344.47500       4.6087727     0.047869597
       318.00001       293.21637       98673.299       13180.183       2.6310000       2.8400000     -0.45575000       344.53000       5.1298588     0.044445460
       323.00002       293.32192       98672.943       13203.393       3.5507500       2.4070000      0.21675000       344.95100       4.2236049     0.039949348
       327.99999       293.37010       98662.748       13188.464       3.6782500       4.3997500     -0.46325000       343.69000       3.1440131     0.041101434
       333.00000       293.41197       98655.895       13225.693       4.1455000      0.78225000     -0.35875000       346.28900       2.8014755     0.045258746
       338.00002       293.42920       98647.806       13276.248       3.3552500       1.0250000      0.83075000       345.09800       4.7841408     0.049549607
       343.00003       293.41939       98631.434       13316.056       5.4157500       2.9785000     -0.13225000       344.12500       3.2845843     0.043839914
       348.00000       293.35448       98633.293       13358.615       5.1170000       1.6075000      0.68900000       344.89600       5.0942370     0.049904440
       354.00001       293.24041       98645.503       13465.584       3.0255000       2.8442500      0.64825000       344.64000       3.6149975     0.056057720
       359.00002       293.14991       98662.172       13425.977       3.8432500       1.8852500      -1.1462500       343.84000       4.2848507     0.044562687
       364.00000       293.02826       98668.713       13366.989       6.1625000       1.3855000     -0.28150000       344.82600       2.7654621     0.040353116
       369.00001       292.90024       98668.797       13246.871       3.5050000     -0.19350000     -0.24525000       344.11800       2.4654565     0.044230045
       374.00002       292.77959       98666.391       13152.406       3.7467500       2.9860000     -0.23375000       344.02200       3.1412860     0.039552647
       379.00000       292.64221       98655.809       13046.826       5.1487500       2.9095000     -0.32675000       343.30100       3.7223222     0.048392636
       384.00001       292.47225       98648.817       12939.912       2.4970000       3.4727500     -0.19350000       345.23700       3.6931354     0.042775309
       389.00002       292.23959       98637.614       12818.459       4.1827500       2.4417500     0.024500000       344.36400       4.0635375     0.049185331
       394.00000       292.11353       98633.066       12738.916       2.6590000       2.4862500     -0.67050000       345.44400       3.3027601     0.040740442
       399.00001       291.91502       98630.459       12632.750       2.1565000       1.7905000      0.42625000       345.97700       2.9538739     0.045415159
       404.00002       291.89695       98633.963       12606.696       5.1362500       3.7760000     -0.56825000       342.89900       4.3035398     0.054131275
       408.99999       292.14922       98649.595       12687.023       5.2645000       1.7660000    -0.058500000       344.21400       3.7479561     0.046191961
       414.00001       292.28030       98657.537       12729.547       4.2232500       2.0877500     -0.43500000       343.02100       4.3772987     0.041640887
       419.00002       292.50042       98671.718       12804.281       3.8560000      0.99750010      0.42325000       343.84500       3.7907637     0.047569708
       423.99999       292.60190       98673.933       12863.233       1.6665000       1.3110000      0.43450000       344.79900       3.6666573     0.054029129
       429.00001       292.54237       98661.929       12888.190       3.5190000       2.6435000     -0.46075000       344.17000       4.5807586     0.046114683
       434.00002       292.55228       98654.823       12935.680       4.5925000      0.88850000     -0.37575000       345.21400       3.9626160     0.049474883
       438.99999       292.57207       98635.683       13013.196       3.2602500       1.7300000     -0.23075000       345.13400       3.4733416     0.047356014
       445.00000       292.54460       98631.563       13074.163       3.5312500       4.2835000      0.46450000       345.07400       3.4737283     0.052206910
       450.00001       292.54368       98641.113       13142.179       5.7685000      0.84350000      0.33050000       344.16600       3.7851362     0.052147059
       455.00003       292.49251       98646.836       13155.427       4.3512500      0.80475000     -0.11950000       344.79300       3.6689290     0.048602642
       460.00000       292.30695       98662.621       13096.483       5.3735000      0.84275000       1.0990000       344.84400       4.0973197     0.053905601
       465.00001       292.26272       98669.389       13091.842       3.1235000       2.5567500     -0.22325000       344.40100       3.7401319     0.049411351
       470.00003       292.29898       98673.693       13092.178       3.4117500       1.1767500      0.43075000       345.11100       3.0761965     0.050973952
       475.00000       292.29257       98671.227       13077.842       4.5190000       3.6580000     -0.79375000       343.47900       3.3293754     0.045813721
       480.00001       292.36687       98660.671       13110.627       4.3640000       1.4972500     0.049000000       344.43500       2.7189196     0.040843272
       485.00002       292.36545       98653.301       13084.912       3.0762500      0.82325010      0.47625000       345.28400       4.4761297     0.042663080
       490.00000       292.28064       98636.907       12993.338       2.4440000      0.26150000     0.026250000       345.65600       2.6899312     0.043416595
       495.00001       292.23045       98631.380       12932.167       5.3967500       5.4890000      -1.4112500       343.71900       3.9841464     0.039032544
       500.00002       292.15329       98630.758       12828.861       5.1875000       2.1625000     -0.47650000       342.91800       4.4162760     0.042446274
       505.00000       292.13005       98635.163       12802.835       4.1642500       2.6925000      0.39525000       344.10400       5.1267303     0.056195042
       510.00001       292.11749       98651.106       12815.871       4.8725000      0.66000000     -0.19800000       344.00000       4.2786820     0.047648743
       515.00002       292.14873       98658.591       12850.146       5.7230000       2.5470000     -0.12125000       343.80800       4.3236935     0.044001197
       520.00000       292.28330       98668.714       12974.484       2.4940000      0.66100000      0.43525000       345.74200       3.5456354     0.050450856
       525.00001       292.32566       98673.489       13032.651       4.2012500       1.4622500      0.10025000       343.54400       3.6182340     0.052829652
       530.00002       292.35133       98671.655       13057.439       4.2385000      0.43450000       1.4472500       344.54700       4.6299446     0.041002338
       536.00003       292.36358       98669.919       13123.852       2.7880000      0.97250000       1.2662500       345.43400       3.9447922     0.048686221
       541.00000       292.30046       98669.240       13172.717       3.2797500       2.3637500      0.43525000       344.39800       4.0560628     0.046944522
       546.00002       292.28661       98662.353       13215.668       3.9117500       3.2045000      0.12950000       342.82600       4.6282827     0.050112799
       551.00003       292.32199       98644.355       13313.995       4.5355000       2.2335000      0.32575000       343.45800       6.1022090     0.051328197
       556.00000       292.28939       98641.916       13312.797       3.3740000       3.5670000   -0.0090000010       343.39700       3.3476412     0.040141175
       561.00001       292.20472       98641.830       13223.059       4.2232500       1.6585000     -0.33425000       343.90500       3.2283635     0.037466210
       566.00003       292.18098       98645.222       13194.027       4.6707500       2.2505000     -0.35825000       343.23200       5.0337490     0.046768862
       571.00000       292.15411       98665.370       13154.155       2.4827500       1.0107500      0.18175000       343.97800       2.9211963     0.043796529
       576.00001       292.13038       98669.854       13102.782       4.3390000       1.5100000     0.018750000       344.04900       4.6900401     0.046105208
       581.00003       292.14583       98668.344       13066.619       3.1662500       2.2375000      0.20100000       343.56200       3.3371919     0.038304296
       586.00000       292.15607       98664.540       13035.096      0.95650010       2.2185000      0.17025000       344.50000       4.3897041     0.044424352
       591.00001       292.15493       98653.123       12978.106       3.8922500       2.8720000      0.16300000       343.85500       3.4052266     0.037277259
       596.00003       292.14512       98646.168       12933.922       2.8025000       1.8817500     -0.38600000       343.78400       3.4878956     0.052141495
       601.00000       292.15711       98635.133       12910.725       2.4182500       1.8162500     -0.12800000       344.05100       4.3943551     0.045238625
