MIRICO/SHELL project - Processed LDS file generated on
Fri Jul 14 23:36:32 2017
Time stamp for record start
05/11/2017  13:13:12.0000
Nb of points in the record
         613
Beam position index
       7.0000000
Beam angle (degrees)
       19.300000
Open Path length (m)
       33.730000
****************** Temporal data record ************************
Elapsedtime_sec Temp_K Press_Pa Humidity_ppmv WindX_m/s WindY_m/s WindZ_m/s Speedofsound_m/s CH4vmr_ppmv CH4vmrerror_ppmv  
      0.00000000       293.60730       98662.030       13727.947       4.5987500       3.8525000      0.73025010       343.86000       2.3737805     0.015861310
       5.0000131       293.64572       98653.539       13787.460       4.0030000       3.1247500     -0.98900000       343.88800       2.1091987     0.016799037
       10.000026       293.52373       98626.482       13815.280       2.5630000       3.2485000     -0.12875000       344.99300       2.0588552     0.014261482
       14.999999       293.48419       98619.897       13817.914       3.5657500      0.15675000     -0.82400010       345.11500       2.0727084     0.015701764
       20.000012       293.43638       98619.219       13770.963       5.4347500       1.7240000    -0.036750000       345.60900       2.3435551     0.016573822
       25.000025       293.37701       98624.367       13733.563       4.7197500       1.2355000      0.30800000       343.81100       4.1212292     0.019232423
       29.999998       293.32615       98651.278       13686.524       5.1662500       2.2165000     -0.33375000       343.25600       2.4809802     0.020311042
       35.000011       293.28616       98660.780       13622.575       5.7605000       1.6487500     -0.66200010       343.18800       2.7728965     0.016766341
       40.000024       293.15961       98668.738       13503.700       6.5550000       1.7077500      0.23850000       342.65800       2.0837076     0.015092319
       45.999992       293.19545       98666.462       13465.435       4.7832500      0.40700000      0.27025000       345.50000       2.0693433     0.012487583
       51.000005       293.34824       98647.548       13451.707       4.2107500       1.7685000     -0.25900000       344.57300       2.0552398     0.013505393
       56.000018       293.46064       98640.157       13464.265       4.3812500       1.9640000     -0.99875000       344.78300       2.0487627     0.013824536
       61.000031       293.67006       98627.306       13551.218       4.6270000       2.3765000     -0.48025000       344.41400       2.0654200     0.015818493
       66.000004       293.78045       98628.106       13609.413       4.3190000       4.5485000       1.1447500       344.39900       2.0507574     0.013678125
       71.000017       293.87478       98642.693       13674.158       5.6337500       3.5320000      0.28325000       343.27900       3.2961758     0.016847902
       76.000030       293.87252       98648.747       13714.977       5.1845000       2.6370000     0.058750000       344.10400       3.1560770     0.019664604
       81.000003       293.80527       98662.307       13777.745       4.3622500       2.5760000     -0.89150010       343.61900       2.1451656     0.017893213
       86.000016       293.70957       98663.247       13777.201       4.7800000       2.4492500      -1.1567500       344.31400       2.0614368     0.012848258
       91.000029       293.48377       98654.913       13726.301       3.9595000       4.2142500     -0.61475000       343.65500       2.3457845     0.020694088
       96.000002       293.36593       98645.995       13669.581       3.8880000       1.7447500      0.69350000       344.25100       2.4692379     0.017179843
       101.00002       293.24783       98622.259       13561.018       5.0937500       2.3825000      0.13525000       344.23100       2.0859140     0.017289612
       106.00003       293.20337       98621.731       13500.671       4.8042500       2.8620000      0.26850000       343.29900       3.2255926     0.015367349
       111.00000       293.26549       98630.589       13457.419       4.9270000       2.1927500     -0.49575000       344.27500       4.3579544     0.019214723
       116.00001       293.23964       98638.070       13392.914       4.3685000       1.8270000     -0.96525010       344.03500       3.9213520     0.018275994
       121.00003       293.26411       98664.064       13364.859       2.8897500       2.8322500    -0.033250000       344.38300       2.6753918     0.018223084
       126.00000       293.17209       98672.938       13269.168      0.98750010       1.5937500      0.59000000       345.89000       2.5132079     0.014035523
       131.00001       292.95665       98674.750       13116.533       4.9960000       3.8105000    -0.047750000       344.07100       2.1054202     0.015029227
       137.00002       292.78769       98667.933       12960.858       4.6790000      0.39675000     -0.94525000       344.33300       2.2284559     0.017827392
       141.99999       292.54808       98651.597       12765.578       6.5072500       1.4255000     -0.44325000       343.00600       2.0544535     0.021565271
       147.00001       292.55522       98643.628       12717.089       2.7320000       2.2342500      0.92650000       344.89900       3.9386764     0.014568973
       152.00002       292.70672       98626.521       12727.961       4.6785000       1.7717500      0.20900000       343.32200       5.0170721     0.019283793
       156.99999       292.82089       98627.647       12761.933       6.0847500       1.3522500     -0.30675000       344.05500       3.1300952     0.012869020
       162.00001       293.13361       98642.914       12925.505       2.3755000       2.6027500     -0.23575000       344.20600       2.2372165     0.012176212
       167.00002       293.17200       98650.905       12949.664       3.8325000       2.0045000     -0.32400000       344.78200       2.0684742     0.014552101
       171.99999       293.07645       98666.668       12931.779       4.2955000       2.9172500      -1.1300000       343.44800       2.0808513     0.014521192
       177.00001       293.02019       98670.203       12916.318       3.3487500       1.9432500     0.016500000       344.82100       1.9862178     0.020999048
       182.00002       292.82466       98668.626       12817.557       3.1375000       1.6835000      0.88725010       345.91100       2.0143453     0.016410520
       186.99999       292.80799       98662.186       12841.312       2.1955000      0.62400000      0.28975000       346.02900       2.0271082     0.014770328
       192.00000       292.91646       98646.044       12938.131       3.0135000       1.6842500    -0.047750000       345.96100       2.5836087     0.019798555
       197.00002       292.88937       98638.962       12976.836       4.4052500       1.4200000     -0.30625000       343.12600       6.4033820     0.020508302
       202.00003       292.86843       98626.887       13060.837       3.8382500       1.2275000     -0.61525010       343.35000       4.5975820     0.015168502
       207.00000       292.83159       98629.105       13076.603       3.6625000      0.65000000      0.42175000       344.30700       7.0623844     0.019279016
       212.00002       292.70134       98643.171       13030.932       3.0412500       1.2972500      0.14500000       346.03200       5.1812729     0.017139929
       217.00003       292.64925       98651.256       13001.615       4.1820000       1.7910000     -0.63875000       344.07600       2.8349878     0.012441300
       222.00000       292.63673       98668.466       12952.130       1.7320000      0.21100000      0.50075000       345.97000       4.1541830     0.014727568
       228.00001       292.60169       98661.053       12876.812       5.4347500      -1.1360000      0.15825000       344.13600       2.3155909     0.017023812
       233.00002       292.66318       98656.275       12894.392       4.6810000      0.38850000    -0.093000000       343.93000       2.2364436     0.018533679
       238.00000       292.90604       98640.164       13027.161       4.7480000      -1.1915000     -0.17150000       344.44500       3.4834155     0.018104715
       243.00001       293.05592       98632.732       13122.720       5.1682500     -0.38850000    -0.018000000       344.08200       4.4330484     0.012769960
       248.00002       293.19351       98630.245       13231.943       4.1737500     -0.78475000     -0.35325000       344.38000       3.5271386     0.017201220
       253.00000       293.42026       98632.618       13419.506       3.1950000       1.7597500      0.42525000       346.56900       3.4014784     0.017391286
       258.00001       293.35365       98640.213       13463.810       3.2875000       1.5817500     0.048250000       345.36300       3.8201621     0.013675322
       263.00002       293.12267       98655.657       13439.560       4.6097500       1.7825000     -0.15525000       343.00500       3.0547464     0.012920222
       267.99999       292.79707       98670.290       13350.164       2.6205000       1.1892500      0.21125000       344.78900       3.9564500     0.015264789
       273.00001       292.60753       98674.146       13298.931       3.1027500       3.3510000    -0.010750000       345.08400       2.4943035     0.016231351
       278.00002       292.51351       98662.698       13262.168       1.9187500       2.7205000    -0.013250000       344.67600       2.0067554     0.016536148
       282.99999       292.46821       98655.835       13224.440       3.2217500       2.8765000     -0.68925010       344.77600       1.9674219     0.017773803
       288.00001       292.53025       98637.187       13206.736       2.6085000       4.2825000     0.024000000       343.82400       1.9876091     0.017179113
       293.00002       292.58738       98631.421       13187.339       4.4790000       5.4770000     -0.40275000       342.95700       2.0035000     0.015677314
       297.99999       292.66914       98633.044       13166.713       3.8265000       4.8040000     -0.84700010       343.46600       2.0030373     0.018312049
       303.00001       292.79036       98643.625       13133.041       5.1705000       3.0407500      0.24075000       343.68800       2.0071605     0.015268951
       308.00002       292.91260       98650.971       13122.349       4.1472500       1.4190000      0.42500000       343.89900       1.9896355     0.016429749
       312.99999       293.04912       98667.031       13114.892       2.8260000       3.8260000     -0.87400000       342.82400       1.9651644     0.016978751
       319.00000       293.24058       98673.632       13185.606       2.6095000       2.5845000    -0.041500000       344.88700       2.0066516     0.016617748
       324.00001       293.33838       98672.266       13206.878       3.5122500       1.7090000      0.77375000       344.03000       1.9832588     0.017111042
       329.00003       293.38044       98661.476       13194.846       4.6387500       3.5427500      0.29100000       343.73000       1.9809438     0.015354598
       334.00000       293.41738       98654.376       13234.737       3.8525000       2.1857500      0.78975000       345.91000       2.0106231     0.014498429
       339.00001       293.44386       98635.389       13288.011       5.0810000       1.2210000    -0.024250000       344.05600       3.1783773     0.017602901
       344.00003       293.40946       98631.202       13323.920       5.7370000       2.0355000      -1.1322500       343.33300       2.8352655     0.016545483
       349.00000       293.31197       98640.194       13436.843       4.2272500       2.9572500     -0.93825010       343.12900       2.7437491     0.012530195
       354.00001       293.24041       98645.503       13465.584       2.3830000      0.76200000      0.32575000       345.31500       3.0758938     0.018822708
       359.00002       293.14991       98662.172       13425.977       4.4265000      0.96150000     -0.22450000       344.32600       4.9939309     0.021499293
       364.00000       293.02826       98668.713       13366.989       5.2777500       1.5455000     -0.78825000       344.10000       2.1433653     0.018478372
       369.00001       292.90024       98668.797       13246.871       3.4745000       2.6477500     -0.15800000       344.36000       1.9770429     0.014179443
       374.00002       292.77959       98666.391       13152.406       3.4222500       2.3345000    -0.025250000       343.42200       2.1214600     0.014914855
       379.00000       292.64221       98655.809       13046.826       5.7230000       3.5675000     -0.55750000       343.34800       2.4452742     0.014146835
       384.00001       292.47225       98648.817       12939.912       4.1595000       2.3765000      0.10100000       345.08100       3.5654360     0.018929358
       389.00002       292.23959       98637.614       12818.459       4.2655000       3.3735000      0.21675000       344.33700       3.3967704     0.012300877
       394.00000       292.11353       98633.066       12738.916       3.6337500       1.6565000      0.13925000       344.98300       2.3603572     0.015660940
       399.00001       291.91502       98630.459       12632.750       2.6987500       1.4820000      0.17550000       345.71000       1.9973510     0.013650238
       405.00002       291.90837       98635.265       12608.002       5.0580000       2.1820000     -0.11175000       344.36500       2.4149029     0.012431889
       410.00003       292.17558       98651.293       12694.894       4.6117500       2.2477500      0.40350000       344.17200       2.8609998     0.014334169
       415.00000       292.30630       98658.960       12739.012       3.1727500       2.0915000       1.0165000       342.74200       5.4550574     0.019301683
       420.00002       292.52662       98672.752       12816.841       3.8200000       1.9342500    -0.087000000       343.38400       5.8152580     0.016853330
       425.00003       292.61334       98673.489       12873.878       2.0817500       1.7215000      0.65400000       344.60600       2.1966742     0.012089463
       430.00000       292.54438       98660.618       12896.927       3.3490000       2.8467500     -0.18075000       343.88900       4.1046728     0.020045827
       435.00001       292.55423       98653.237       12946.320       3.2327500     -0.47575000      0.29150000       345.85100       2.1077345     0.016817089
       440.00003       292.56875       98634.241       13024.208       1.8337500       2.1485000      0.74300000       345.08300       1.9830668     0.015793956
       445.00000       292.54460       98631.563       13074.163       2.8687500       1.9737500      0.19000000       345.57400       3.3363848     0.012908053
       450.00001       292.54368       98641.113       13142.179       3.7182500       1.8762500     -0.29875000       344.56300       4.5209441     0.013575547
       455.00003       292.49251       98646.836       13155.427       4.6530000       1.0620000     -0.33650000       343.50000       2.7045871     0.013283506
       460.00000       292.30695       98662.621       13096.483       5.0760000       1.4307500      0.11725000       344.04700       2.3233984     0.013324947
       465.00001       292.26272       98669.389       13091.842       2.4287500       2.4185000      0.36200000       344.70500       2.1209626     0.011848958
       470.00003       292.29898       98673.693       13092.178       2.9325000      0.86475000      0.39575000       344.82200       2.0394193     0.018612465
       475.00000       292.29257       98671.227       13077.842       3.7202500       2.8310000     -0.41475000       343.50400       1.9649625     0.013572604
       480.00001       292.36687       98660.671       13110.627       4.2502500       2.1500000      0.28700000       345.05800       2.1089732     0.016039726
       485.00002       292.36545       98653.301       13084.912       2.7057500     -0.11925000      0.24100000       345.59600       2.3080646     0.013913153
       490.00000       292.28064       98636.907       12993.338       2.8862500      0.97300000      0.26825000       345.92600       1.9842332     0.014825649
       496.00001       292.22042       98630.878       12919.887       4.1712500       3.1715000       1.3745000       345.92500       3.7626667     0.014945139
       501.00002       292.14660       98631.240       12820.658       5.9320000       2.2875000     -0.65475000       342.62800       3.4200753     0.012618204
       505.99999       292.12847       98636.642       12802.120       3.6165000       2.7362500      0.88025000       344.38700       3.8640481     0.015394146
       511.00000       292.12078       98652.703       12820.087       4.0840000       2.7967500      -1.7745000       344.11900       3.0676989     0.013139350
       516.00002       292.15941       98659.938       12860.970       5.3230000       1.8847500     -0.38575000       343.99200       3.1098344     0.014158643
       521.00003       292.29374       98669.971       12987.436       2.7030000      0.57875000     0.095000010       345.44100       4.4707103     0.016959459
       526.00000       292.33117       98673.990       13042.299       3.4127500       1.0442500    -0.018750000       343.92700       4.3509557     0.017402325
       531.00002       292.35587       98671.490       13068.228       2.8087500       1.8667500    -0.073000010       344.72300       5.4505445     0.020483403
       536.00003       292.36358       98669.919       13123.852       4.9385000       2.2267500     -0.49000000       343.56100       2.7719976     0.013872274
       541.00000       292.30046       98669.240       13172.717       3.1165000       1.0357500       1.2285000       344.78100       5.1890075     0.016669227
       546.00002       292.28661       98662.353       13215.668       4.2440000       3.3340000     -0.67075000       342.87700       7.0869859     0.018728910
       551.00003       292.32199       98644.355       13313.995       4.0757500       1.7475000      0.40625000       343.79500       3.1647093     0.015775203
       556.00000       292.28939       98641.916       13312.797       3.8012500       2.1710000     -0.66700010       343.64500       2.2532897     0.018162659
       561.00001       292.20472       98641.830       13223.059       3.6552500       2.7000000      0.11475000       343.82500       2.0179793     0.014719863
       566.00003       292.18098       98645.222       13194.027       4.0807500       1.2472500      0.30575000       343.80400       1.9706812     0.015640573
       571.00000       292.15411       98665.370       13154.155       2.8072500      0.89550010     -0.18500000       344.24100       1.9161265     0.017870251
       576.00001       292.13038       98669.854       13102.782       3.7377500       2.7372500     0.024000000       343.71200       1.9843164     0.012702905
       581.00003       292.14583       98668.344       13066.619       2.5670000       1.8165000      0.25475000       343.63800       1.9674831     0.021382934
       586.99999       292.15812       98663.329       13028.508       1.9470000       1.6505000      0.27100000       344.71500       1.9825218     0.018796554
       592.00001       292.15299       98651.727       12968.561       3.9282500       1.8907500     -0.18375000       343.50700       1.9594179     0.017382921
       597.00002       292.14313       98644.786       12926.147       2.5467500      0.40575000      0.47425000       343.85300       1.9563671     0.017846361
       601.99999       292.15685       98634.226       12907.803       3.1442500       1.0120000     -0.11450000       344.15500       1.9529576     0.014393230
