MIRICO/SHELL project - Processed LDS file generated on
Mon Jul 24 12:31:49 2017
Time stamp for record start
05/12/2017  13:22:58.0000
Nb of points in the record
         440
Beam position index
       1.0000000
Beam angle (degrees)
      -18.455000
Open Path length (m)
       34.890000
****************** Temporal data record ************************
Elapsedtime_sec Temp_K Press_Pa Humidity_ppmv WindX_m/s WindY_m/s WindZ_m/s Speedofsound_m/s CH4vmr_ppmv CH4vmrerror_ppmv  
      0.00000000       289.04546       98905.944       13859.061       6.9492500      -2.4527500      0.35475000       341.44700       2.1127666     0.016835749
       5.0000131       288.93537       98905.685       13781.217       4.8722500     -0.75500010       1.0312500       341.65000       2.1086309     0.013350656
       10.000026       288.93339       98904.650       13783.265       6.0150000      -1.9097500     -0.14275000       341.56000       1.9664321     0.017601999
       14.999999       288.98510       98904.762       13799.418       3.2225000      -2.8905000      -1.9880000       341.53400       2.0292117     0.013405784
       20.000012       289.01122       98905.711       13825.464       6.6040000      -3.3032500     -0.29125000       341.36700       2.1050552     0.013956621
       25.000025       289.09859       98904.375       13904.783       4.2972500      -4.1950000     -0.37575000       341.51500       2.0052355     0.016238033
       29.999998       289.12569       98904.970       13959.780       5.1380000      -3.1372500      0.52100000       341.81200       2.0420240     0.012600080
       35.000011       289.07800       98910.324       13974.150       3.6012500      -1.5332500     -0.46100000       341.82900       2.1090632     0.012289042
       40.000024       289.11091       98911.776       14059.773       4.1987500      -2.5957500     -0.21150000       341.71900       2.0802525     0.012713810
       44.999997       289.20786       98910.153       14234.426       5.5960000      -2.1475000      0.31200000       341.37700       2.1218906     0.014181732
       50.000010       289.21557       98910.094       14295.860       5.0412500      -1.7142500     -0.58450000       341.63700       2.0729566     0.012015214
       55.000024       289.19248       98911.531       14345.101       4.3475000     -0.13700000      0.70300000       341.89800       2.0042483     0.019685716
       59.999996       289.21244       98909.955       14365.526       3.6710000     -0.10700000       1.4492500       342.12100       2.0271434     0.011727673
       65.000010       289.16304       98904.794       14278.516       7.1710000      -1.2167500     -0.66375010       341.44400       2.0857113     0.012299399
       70.000023       289.20738       98904.336       14269.284       4.8685000      0.35900000      0.23550000       341.76600       2.1839237     0.016656575
       76.000030       289.39619       98905.540       14302.069       4.8697500     -0.69650000      0.11800000       341.77100       2.0398158     0.020192832
       81.000003       289.45895       98904.579       14313.516       2.4265000     -0.56375000      0.14000000       341.88300       1.9993872     0.018530865
       86.000016       289.52276       98905.102       14331.137       6.0872500     -0.99075010     -0.42650000       341.55600       2.0331123     0.014982467
       91.000029       289.50807       98906.156       14336.407       4.8450000     -0.29325000      -1.2400000       341.90800       2.0252135     0.013142054
       96.000002       289.40627       98907.314       14349.817       6.3110000      -1.8170000     -0.63400000       341.24500       2.0721450     0.012060847
       101.00002       289.36611       98902.561       14317.920       5.7255000      -1.0890000     -0.54425000       342.10200       2.0326886     0.017231443
       106.00003       289.28490       98892.304       14255.005       5.1407500      -1.5787500      0.32650000       341.92200       2.0700340     0.017836446
       111.00000       289.28096       98896.735       14207.540       5.5682500     -0.85675000      0.32225000       341.98000       2.1069145     0.015773654
       116.00001       289.34551       98906.937       14124.175       6.1207500      -4.4717500      0.21825000       342.12200       2.0214273     0.021466334
       121.00003       289.36570       98904.325       14089.353       5.0390000      0.58650000     -0.15700000       341.28100       1.9738760     0.033737879
       126.00000       289.38580       98904.371       14076.051       4.8645000      0.40875000       2.4482500       342.28300       2.0707710     0.012870371
       131.00001       289.43521       98909.513       14080.830       3.4007500      -3.0315000      0.68025000       342.63100       1.9901190     0.019806496
       136.00003       289.48470       98906.367       14107.259       5.2052500      -1.3212500       1.7420000       342.48000       2.0344866     0.016019571
       141.00000       289.54326       98901.336       14136.275       6.9490000      0.99275000     -0.23075000       341.97800       2.0909336     0.017183372
       146.00001       289.66141       98904.452       14180.153       6.3827510      -2.3767500      -2.2742500       341.94700       2.1199111     0.017915988
       151.00003       289.68484       98909.442       14237.315       8.8645000     -0.50800000      -1.0117500       341.97400       2.0487361     0.019625011
       156.00000       289.64781       98906.375       14317.939       7.2517500      -3.1660000     -0.28875000       341.68000       2.0168022     0.016994604
       161.00001       289.65758       98901.444       14361.731       4.0900000      -3.8870000      0.31900000       341.75300       2.0223227     0.020658590
       167.00002       289.63701       98905.801       14416.612       5.5172500      -2.4180000      0.71825000       342.73900       2.0264383     0.015729422
       171.99999       289.67033       98910.840       14450.763       6.4507500      -1.4017500     -0.37700000       341.94200       2.0537844     0.011437212
       177.00001       289.75001       98905.473       14444.652       6.2377510      -2.8010000     -0.15400000       342.39100       1.9940368     0.021518193
       182.00002       289.78575       98903.016       14533.323       7.1307500      -2.6437500      0.86550000       342.70500       2.0700002     0.016263197
       186.99999       289.84461       98906.238       14592.331       5.5657500      -1.5767500      0.76950000       342.02100       1.9907201     0.020361046
       192.00000       289.93048       98898.214       14627.363       6.6667500      -1.3845000      0.33900000       341.55500       2.1497694     0.017019340
       197.00002       289.99981       98892.762       14696.669       6.0432500      -3.1537500      0.57100000       342.03100       2.0373500     0.019222448
       202.00003       290.06914       98892.240       14775.402       3.8687500      -1.6470000      0.53575000       342.37800       1.9958063     0.024147122
       207.00000       290.16848       98906.753       14853.439       3.3982500      -2.0545000    0.0062500000       343.34500       2.0671629     0.013656649
       212.00002       290.18416       98909.538       14910.537       6.0285000      -2.3105000     -0.61125000       342.29500       2.0516345     0.017426169
       217.00003       290.16163       98905.271       15001.240       4.1997500     -0.62825000      0.40750000       343.31400       1.9993019     0.019680856
       222.00000       290.08443       98905.603       14983.489       2.8552500      -1.3442500     -0.24325000       343.40200       2.0755356     0.015323082
       227.00002       290.04281       98905.658       14971.895       5.0940000      -1.0160000     -0.81900010       341.96500       2.0031956     0.019617829
       232.00003       290.01428       98900.240       14949.365       2.3247500    -0.078000000       1.2310000       343.58200       2.0987596     0.016159041
       237.00000       289.99322       98898.997       14922.898       4.1587500      -1.7965000      0.31375000       341.51100       2.0083411     0.012854695
       242.00002       290.00007       98904.807       14874.968       3.6937500      -1.7212500    -0.024250000       343.05500       1.9804603     0.028843296
       247.00003       289.99996       98905.905       14846.152       7.8580000      -2.3887500       1.0237500       341.94300       2.0240856     0.020612818
       252.00000       289.99984       98905.766       14824.901       5.3147500      -1.8170000      0.41300000       342.58700       1.9746275     0.015293583
       258.00001       290.00090       98905.063       14799.597       5.4540000      -1.2445000       1.0035000       342.67400       2.0259951     0.014451233
       263.00002       290.02825       98918.454       14878.352       7.7127500      0.24100000     -0.27950000       341.92500       1.8614246     0.023254417
       267.99999       290.00568       98916.922       14878.781       7.0510000      -1.0367500     0.030750000       342.15300       1.9101361     0.024705427
       273.00001       289.94480       98902.880       14830.574       6.9615000      -2.7167500      0.39850000       342.21300       1.9110224     0.026300219
       278.00002       289.89324       98903.940       14821.817       5.6412500      -1.3397500      0.28725000       342.18700       1.9497685     0.025293438
       282.99999       289.79939       98909.270       14772.844       4.7072500     -0.54750000     0.060750000       342.64400       1.8873082     0.028734317
       288.00001       289.73125       98904.330       14755.109       6.6407500     -0.40350000     -0.46650000       342.08600       1.9496753     0.016842559
       293.00002       289.70571       98901.620       14860.181       5.4590000      -1.7432500   -0.0010000000       342.16300       1.9681101     0.024757486
       297.99999       289.64421       98906.649       14840.755       5.4090000      -1.4417500    -0.028500000       341.92900       2.0229074     0.017997869
       303.00001       289.54206       98906.748       14726.813       8.1090000     -0.85075000     -0.52075000       341.73700       1.9565865     0.017005825
       308.00002       289.48311       98903.981       14649.027       5.5875000     -0.59300010    -0.024500000       342.13000       2.0692482     0.013302334
       312.99999       289.39078       98913.659       14495.122       5.3212500     -0.60300000      0.12575000       341.85300       1.9305362     0.025567454
       318.00001       289.37520       98918.190       14403.339       7.4487500      0.76075010    -0.094750000       341.71600       1.8861509     0.025657259
       323.00002       289.44059       98903.821       14331.146       6.1767500     -0.80250000     -0.61925010       341.88400       1.9588843     0.024391528
       327.99999       289.50300       98902.555       14328.847       5.7257500      0.23975000     -0.13525000       341.63400       2.0540860     0.015816859
       333.00000       289.62015       98920.528       14370.687       4.9545000      -1.0915000     -0.32725000       342.10400       1.9338897     0.018161000
       338.00002       289.71945       98923.116       14449.803       4.0045000      -1.0197500      0.71625010       342.20400       2.0239666     0.012551850
       343.00003       289.87602       98913.911       14654.610       3.7137500      -1.5715000      0.40000000       342.26400       2.0370215     0.012204165
       349.00000       289.93580       98915.410       14819.353       3.4635000     -0.40125000     -0.64875000       342.48500       2.0196815     0.030764453
       354.00001       289.91365       98919.786       14977.733       4.6687500      -1.0230000      0.11250000       341.80500       2.0315391     0.018464318
       359.00002       289.90661       98914.016       15060.946       6.0517500      -3.6620000     -0.42075000       342.16000       2.0367709     0.016936029
       364.00000       289.80998       98903.021       15094.294       4.8025000      -2.0057500      0.28325000       341.94000       1.9996807     0.020655597
       369.00001       289.77710       98904.669       15088.609       3.8032500       1.2560000       1.5362500       342.17700       1.9851424     0.014149442
       374.00002       289.79999       98908.281       15011.137       5.4385000      0.54925000     -0.22225000       342.23600       1.9723562     0.020988569
       379.00000       289.79999       98903.344       14946.037       5.5480000      -1.2795000     0.020250000       342.20600       1.8149645     0.030399144
       384.00001       289.77309       98905.150       14811.982       3.4180000      -1.0310000     -0.93350010       342.29500       2.1098506     0.015589693
       389.00002       289.80081       98907.307       14754.703       3.7530000      0.71350000      0.30100000       342.51800       1.9990450     0.013672622
       394.00000       289.86321       98895.684       14724.851       6.0870000      0.58175000     0.078000000       341.73500       1.9406438     0.025351046
       399.00001       289.91722       98892.150       14711.283       4.6785000     -0.66025000      0.36775000       343.32500       2.0270020     0.015885128
       404.00002       290.04248       98903.688       14773.811       3.4337500     -0.54425000      0.38100000       342.68800       2.0223322     0.011917220
       408.99999       290.08187       98907.994       14775.477       4.3340000     -0.53650000      0.67250000       342.87800       1.9702441     0.022235660
       414.00001       290.01856       98902.027       14718.580       4.9212500      -1.9502500      0.29450000       341.40500       2.0040335     0.013271605
       419.00002       290.05603       98905.155       14735.737       5.7142500      0.86625000     -0.68200000       341.87700       2.0087533     0.020818799
       423.99999       290.09299       98921.439       14763.364       3.1992500      -1.1407500      0.35975000       342.91700       1.9655394     0.015054328
       429.00001       290.16335       98923.044       14807.177       4.4675000     -0.97575000      0.31900000       342.75700       1.9421171     0.023181663
       434.00002       290.34557       98914.102       14894.561       3.8427500      0.17650000      0.84275000       342.28000       1.9797198     0.018005586
       440.00003       290.46553       98915.891       15027.150       6.0052500       2.0225000      -1.1717500       341.65900       1.9365422     0.035229256
       445.00000       290.52789       98918.665       15125.154       6.0790000      0.13275000      0.14050000       341.84900       2.0088785     0.019628548
       450.00001       290.59192       98912.289       15288.626       5.1260000     -0.34225000     -0.31025000       341.33600       2.0198465     0.015922284
       455.00003       290.63088       98903.229       15568.089       5.1650000     -0.65825000     -0.13525000       341.44600       1.9748786     0.021079195
       460.00000       290.68104       98905.464       15733.851       4.1175000     -0.56550000      0.66325000       341.92100       1.9481350     0.015913273
       465.00001       290.74138       98903.967       15913.961       4.2245000     -0.47225000     -0.31900000       342.69600       1.9642773     0.014971183
       470.00003       290.77486       98903.849       15991.786       3.1332500      -1.2842500     -0.45425000       342.75800       1.9643533     0.015295395
       475.00000       290.77607       98921.861       15960.678       4.9135000       1.1232500     -0.11925000       342.00600       1.9581214     0.020286822
       480.00001       290.82252       98924.662       15951.268       3.9060000      0.61000000      0.52050000       343.17300       2.0089788     0.014224927
       485.00002       290.88384       98908.369       15879.338       3.9017500     0.037500000      0.85900000       343.04700       2.0335187     0.016784950
       490.00000       290.92394       98908.925       15849.484       2.7882500     -0.47150000      0.24725000       342.86900       1.9710854     0.019867220
       495.00001       290.99960       98924.486       15827.606       4.2882500      -2.7547500    -0.086500000       342.55500       1.9741265     0.021390071
       500.00002       291.02748       98920.395       15806.831       3.1920000     -0.81150000      0.26125000       343.61800       1.9253847     0.024360963
       505.00000       291.02249       98903.433       15818.228       2.9812500      -2.0992500     -0.11450000       343.05500       2.0195762     0.014412614
       510.00001       290.99012       98904.337       15774.015       3.9192500      -1.9130000      -1.2245000       342.49400       1.9860019     0.019265442
       515.00002       290.93861       98904.989       15716.201       4.7375000      -1.1420000     -0.59300010       342.15800       1.9213198     0.016955804
       520.00000       290.86688       98903.183       15628.504       3.5277500     -0.64950000      0.92875000       343.35600       1.9146358     0.017530946
       526.00000       290.70358       98915.298       15459.812       2.7970000     -0.52100000      0.48450000       342.92300       1.9795770     0.013636977
       531.00002       290.64070       98920.445       15352.606       1.8887500      -1.1862500      0.10400000       342.54400       1.9997519     0.018059530
       536.00003       290.61204       98913.181       15254.447       3.6550000     -0.14125000     -0.15250000       342.78200       2.0160967     0.016419939
       541.00000       290.55139       98915.720       15127.188       4.5622500      -1.0545000      0.43350000       341.90300       1.9499181     0.022085956
       546.00002       290.49767       98931.330       14963.195       1.9210000      -1.3827500       1.5745000       343.24600       1.9996230     0.014528770
       551.00003       290.47624       98934.818       14902.089       4.2147500     -0.37375000     -0.42475000       343.08300       1.9965235     0.013916125
       556.00000       290.43043       98930.299       14840.429       3.1515000     -0.44800000       1.5887500       343.78500       1.9442499     0.016666396
       561.00001       290.44616       98930.265       14858.942       5.1432500      -1.4020000     -0.60900000       341.77000       1.9531283     0.018798831
       566.00003       290.59543       98934.796       15028.484       4.7985000      -1.2195000     -0.66725000       342.36200       1.9421017     0.023330594
       571.00000       290.53150       98925.231       15048.544       5.2012500      -1.3267500     -0.54150000       342.19500       2.0471622    0.0097498475
       576.00001       290.37234       98903.166       15047.554       2.8995000      0.46575000      0.60300000       342.86800       1.9107952     0.016926133
       581.00003       290.28336       98902.694       15007.079       3.9830000      0.94450000      0.35675000       343.18900       1.9988133     0.014034621
       586.00000       290.10088       98906.525       14903.905       4.4872500     -0.80500010      0.91725000       343.38400       1.9447187     0.013108581
       591.00001       290.00678       98901.521       14796.704       3.5765000     -0.65225010     -0.18100000       341.79500       2.0754999     0.016042577
       596.00003       290.00761       98904.309       14665.996       3.5740000      0.23850000      0.61925010       342.94300       1.9493877     0.015308652
       601.00000       289.96785       98909.287       14547.350       3.9340000       1.4667500     -0.49100000       342.78400       1.9554010     0.018961196
