MIRICO/SHELL project - Processed LDS file generated on
Mon Jul 24 20:21:11 2017
Time stamp for record start
05/12/2017  13:22:58.0000
Nb of points in the record
         440
Beam position index
       2.0000000
Beam angle (degrees)
      -8.6380000
Open Path length (m)
       64.850000
****************** Temporal data record ************************
Elapsedtime_sec Temp_K Press_Pa Humidity_ppmv WindX_m/s WindY_m/s WindZ_m/s Speedofsound_m/s CH4vmr_ppmv CH4vmrerror_ppmv  
      0.00000000       289.04546       98905.944       13859.061       7.3815000      -1.7685000      0.42050000       341.50000       1.9623402     0.011479781
       5.0000131       288.93537       98905.685       13781.217       4.6307500      -1.7305000      0.49375000       341.67200       1.8860764     0.012212469
       10.000026       288.93339       98904.650       13783.265       5.9632500     -0.46800000     -0.16675000       341.46900       1.8964696     0.010726397
       14.999999       288.98510       98904.762       13799.418       2.2362500      -1.6427500       1.5250000       341.91100       1.9164022     0.010292469
       20.000012       289.01122       98905.711       13825.464       6.0570000      -3.6790000      -1.1150000       341.53400       1.8732849     0.015188876
       25.000025       289.09859       98904.375       13904.783       4.2057500      -2.9845000      0.53700000       341.58200       1.9198022     0.010045813
       29.999998       289.12569       98904.970       13959.780       3.4885000      -2.2385000      0.19850000       341.83000       1.8985772     0.011274415
       35.000011       289.07800       98910.324       13974.150       3.5067500     -0.95150010      0.66250000       342.01300       1.8498982     0.012152570
       41.000019       289.12051       98911.918       14080.842       3.7772500      -2.6855000      0.16450000       341.75000       1.8398537     0.015636650
       45.999992       289.21146       98910.141       14249.423       5.0570000     -0.57900010     -0.75825010       341.24300       1.9623598     0.019643718
       51.000005       289.21402       98910.082       14304.068       3.8410000      -1.9237500     -0.99600010       341.59700       2.0697421     0.024514084
       56.000018       289.19647       98911.314       14352.152       4.6745000      0.24375000      0.57325010       341.85100       1.8987330     0.011296357
       61.000031       289.21644       98909.494       14365.155       3.2890000     -0.40725000     0.088250000       342.11300       1.9690150    0.0096646027
       66.000004       289.16797       98904.605       14275.106       7.1265000      -1.2000000     0.097000000       341.71000       1.9613387     0.010188751
       71.000017       289.22215       98904.391       14269.768       4.8467500      -1.0737500      0.68200000       341.85700       1.9382245     0.014310960
       76.000030       289.39619       98905.540       14302.069       4.8177500     -0.48175000     -0.12150000       341.88400       1.8809100     0.010556810
       81.000003       289.45895       98904.579       14313.516       3.5047500     -0.27500000     -0.28275000       341.82700       1.9537409     0.010550471
       86.000016       289.52276       98905.102       14331.137       6.9327500      -1.6415000     -0.77200000       341.67500       1.9749679     0.011600815
       91.000029       289.50807       98906.156       14336.407       3.8017500     -0.92400000   -0.0030000000       341.86300       1.9368175     0.011930576
       96.000002       289.40627       98907.314       14349.817       6.5017500      -1.6435000    -0.020750000       341.67000       2.0684037     0.019898579
       101.00002       289.36611       98902.561       14317.920       4.6020000     -0.57300000       1.1002500       341.76900       2.0005645     0.014333210
       106.00003       289.28490       98892.304       14255.005       6.2945000      -2.2910000     -0.47000000       341.51000       1.9331046     0.011781945
       111.00000       289.28096       98896.735       14207.540       7.5300000     -0.41075000      0.24650000       341.81200       1.8522538     0.020708940
       116.00001       289.34551       98906.937       14124.175       6.5485010     -0.43975000   -0.0090000010       342.55300       1.8802789     0.014397568
       121.00003       289.36570       98904.325       14089.353       5.4537500      0.70400010    -0.012000000       341.36900       1.9714613     0.010912984
       127.00000       289.39467       98905.398       14075.520       3.4155000     -0.36750000      0.49525000       342.36900       1.8452027     0.014912533
       132.00001       289.44642       98910.340       14092.099       3.1027500      -1.5407500       1.0867500       342.91500       1.9534704     0.011563674
       137.00002       289.49546       98905.366       14112.166       7.2090000      -2.3222500      0.37650000       341.53400       1.9484847    0.0098644500
       141.99999       289.61611       98900.449       14143.101       6.1130000      0.69100000       1.1445000       342.49100       1.9757868     0.014246543
       147.00001       289.66904       98905.451       14190.621       4.6702500      -1.0217500      -1.5602500       342.09300       1.8216234     0.023177618
       152.00002       289.63995       98910.330       14275.998       7.4825010     -0.82225010     -0.87225000       341.76200       1.8582341     0.019761011
       156.99999       289.64977       98905.388       14327.466       6.4682500      -2.1952500     -0.43375000       342.13900       1.9938993     0.011074587
       162.00001       289.65953       98900.459       14369.336       6.7397500      -3.6752500      0.19000000       341.99300       1.8832493     0.012660969
       167.00002       289.63701       98905.801       14416.612       5.6225000      -1.5420000     -0.54950000       341.66500       1.8684485     0.014299095
       171.99999       289.67033       98910.840       14450.763       7.3662510      -1.2382500     -0.58000000       341.52000       1.9301836     0.011572187
       177.00001       289.75001       98905.473       14444.652       2.7872500      -2.1600000      0.40250000       342.93400       1.9181976     0.012236700
       182.00002       289.78575       98903.016       14533.323       5.9640000      -2.6862500       1.1985000       342.35700       2.1467210      0.90165670
       186.99999       289.84461       98906.238       14592.331       4.3792500      -1.4612500      0.50125000       342.88700       38.454069       4.8292121
       192.00000       289.93048       98898.214       14627.363       6.3897500      -1.0092500      0.10425000       341.61800     -0.34484076       1.1233139
       197.00002       289.99981       98892.762       14696.669       6.3422500      -3.0625000      -1.0330000       341.29400       4.6212322       1.1737623
       202.00003       290.06914       98892.240       14775.402       3.7790000      -1.9395000      0.58750000       342.56400       5.6179188       4.1145766
       207.00000       290.16848       98906.753       14853.439       7.6250000      -4.5025000     -0.32000000       342.10100       6.2584384       1.0404603
       212.00002       290.18416       98909.538       14910.537       4.8447500      -2.8055000      0.99475000       342.82500       3.7689810       1.3556635
       218.00002       290.15708       98905.066       15007.391       3.7917500     -0.36375000      0.25075000       343.31000       3.1003815      0.94895226
       223.00000       290.07506       98905.712       14981.795       4.7192500      -2.0627500      0.12250000       342.66300       10.823324       1.4621335
       228.00001       290.03605       98905.523       14968.646       5.3140000     -0.33125000     -0.41750000       342.22100       4.4248730       1.0938657
       233.00002       290.00908       98899.794       14944.525       3.2297500     -0.62625000    -0.078000000       342.82600       5.0760844       1.0665339
       238.00000       289.99049       98899.043       14916.923       3.6262500      -2.0777500     -0.28775000       342.17800       4.6645785       1.2846361
       243.00001       290.00005       98905.126       14868.599       8.9340000      -3.4257500       1.1837500       342.39200       4.0448930       1.1255007
       248.00002       289.99993       98905.976       14841.296       8.0137500      -1.2870000     -0.91075000       342.29300       8.8879082       1.2846560
       253.00000       290.00063       98901.733       14801.212       6.0887500      -2.3520000      -1.3682500       342.16300       9.5850057       1.4285516
       258.00001       290.00090       98905.063       14799.597       4.6250000      -1.0977500      0.96100000       342.98200       4.5028353       1.3883451
       263.00002       290.02825       98918.454       14878.352       6.7440000     -0.65550010     -0.89700000       342.46700       3.6733953       1.1434175
       267.99999       290.00568       98916.922       14878.781       7.6957500      -1.7937500     -0.29900000       342.03700       4.4832336      0.97836805
       273.00001       289.94480       98902.880       14830.574       5.1312500      -2.8855000     -0.85700010       342.03800       3.8532661       1.0264732
       278.00002       289.89324       98903.940       14821.817       6.0852500      -1.5277500     -0.71850000       341.70900       8.4160768       1.4703239
       282.99999       289.79939       98909.270       14772.844       3.4697500     -0.70050000       1.0215000       343.07500       9.6732694       1.1464472
       288.00001       289.73125       98904.330       14755.109       6.8467500      -1.5177500    -0.070500000       342.38900       4.1506216       1.0509522
       293.00002       289.70571       98901.620       14860.181       4.4417500      -1.9417500      0.82875000       342.44800       4.4072226      0.81163234
       297.99999       289.64421       98906.649       14840.755       5.9260000     -0.75050000     0.038750000       342.02200       4.0646494      0.91182564
       303.00001       289.54206       98906.748       14726.813       6.9975000      0.39675000     -0.77975000       341.60600       1.5076617      0.99147152
       309.00001       289.47282       98903.724       14631.688       5.7370000      -1.6847500       1.2495000       341.79400       3.5922896       1.5243525
       314.00003       289.38362       98914.963       14474.019       5.4020000     0.044000000     -0.30175000       341.41700       2.6811260      0.92495060
       319.00000       289.37815       98918.499       14389.067       7.0900000      0.18200000     -0.76475010       342.20700      0.97390239      0.96315439
       324.00001       289.45111       98903.075       14326.872       6.8382500      0.10975000     -0.29500000       341.79000       6.3034385       2.0291534
       329.00003       289.51844       98903.040       14334.122       6.0087500      -1.3627500     -0.17825000       341.88500       7.3532279       1.5124103
       334.00000       289.64001       98921.439       14382.583       3.8375000      -1.8925000      0.65500000       342.37600       7.1167828       1.0799770
       339.00001       289.73931       98923.044       14471.555       4.8245000      -1.0665000     -0.44425000       341.75600       6.1255060       1.1680698
       344.00003       289.89097       98914.040       14683.398       3.8760000      -1.7477500      0.31450000       341.74900       5.7851339       1.4755756
       349.00000       289.93580       98915.410       14819.353       4.5315000     -0.71975000     -0.73000000       342.24300       3.2980385      0.87168683
       354.00001       289.91365       98919.786       14977.733       4.8720000     -0.79475000    -0.017250000       341.91200       8.8074346       1.2988026
       359.00002       289.90661       98914.016       15060.946       5.5907500      -2.6757500      -1.0685000       342.37100       4.9017320      0.83045212
       364.00000       289.80998       98903.021       15094.294       4.7200000      -2.6345000     -0.34125000       341.61400       4.2387726      0.90517218
       369.00001       289.77710       98904.669       15088.609       4.2440000     -0.46450000      0.53875010       342.11500       10.274960       1.0319830
       374.00002       289.79999       98908.281       15011.137       4.8555000     -0.70825000      0.67750000       342.46700       9.2312179       1.0860321
       379.00000       289.79999       98903.344       14946.037       5.1857500     -0.51875000      0.16775000       342.00900       5.3633893       1.1027673
       384.00001       289.77309       98905.150       14811.982       3.5842500     -0.30475000     0.035750000       342.07000       6.5056826       1.1088432
       389.00002       289.80081       98907.307       14754.703       3.8252500     -0.53275000     -0.17925000       342.44600       1.4065846      0.89725394
       394.00000       289.86321       98895.684       14724.851       4.9007500     -0.30550000     -0.23175000       341.97500       6.1839484       1.1223391
       400.00000       289.92952       98892.041       14711.661       4.9382500     -0.44500000      0.38225000       342.37700     -0.93153140      0.98511293
       405.00002       290.05342       98904.749       14775.594       5.0552500     -0.40375000     -0.52175000       342.62100       1.6433699       1.2691935
       410.00003       290.08515       98908.555       14773.642       3.4387500      -1.4797500     0.042000000       342.69600       7.2466975       1.1238374
       415.00000       290.02409       98902.357       14720.193       4.3562500      -2.5342500       1.0457500       341.47900       3.3210169      0.98872249
       420.00002       290.06647       98906.223       14741.899       5.5462500    -0.087250000     -0.17700000       342.01700       7.8767230       1.4988939
       425.00003       290.10411       98922.153       14770.050       4.0605000     -0.23325000    -0.012000000       342.80000      -3.1473628       1.0666465
       430.00000       290.18185       98922.775       14819.060       4.3380000      0.10250000     -0.28175000       342.00200       4.3701267       1.0931106
       435.00001       290.36801       98914.280       14914.824       4.4175000      0.59200000      0.18075000       342.16500       7.6064475       1.3531565
       440.00003       290.46553       98915.891       15027.150       3.9847500       2.7947500      0.46800000       342.42500      -2.3742990       1.0211830
       445.00000       290.52789       98918.665       15125.154       5.8182500     -0.23375000     -0.15400000       341.33600       6.8713044      0.95948140
       450.00001       290.59192       98912.289       15288.626       5.5085000      0.61875000    -0.072250000       341.77600       3.5114477      0.91274948
       455.00003       290.63088       98903.229       15568.089       5.1667500     -0.40850000     -0.14850000       341.34300       2.4339232      0.86734359
       460.00000       290.68104       98905.464       15733.851       4.4110000      -1.4802500     -0.24125000       341.78300       5.2083127       1.0532980
       465.00001       290.74138       98903.967       15913.961       4.0400000      0.16200000     -0.28100000       342.52700       6.1234288       1.4577876
       470.00003       290.77486       98903.849       15991.786       2.5200000      0.77575000      0.61800000       343.28200       3.0997885      0.95968904
       475.00000       290.77607       98921.861       15960.678       3.7607500       1.3885000     -0.12975000       342.36500       8.9285059       1.4087214
       480.00001       290.82252       98924.662       15951.268       3.3187500     -0.74100010     -0.19875000       342.66200       4.7480843       1.2635641
       485.00002       290.88384       98908.369       15879.338       3.6115000     -0.54700010     0.084500010       341.93700      -1.2386825       1.0105516
       490.99999       290.93196       98909.640       15844.348       2.9102500     -0.98300000      0.79050000       342.70300       4.0234952       1.0111012
       496.00001       291.00721       98924.178       15823.041       3.9732500      -1.8252500      0.40725000       343.23500       2.3583404       1.0565709
       501.00002       291.03000       98918.812       15803.302       3.0705000     -0.79425000     -0.26875000       343.17500       8.2197878       1.2030220
       505.99999       291.01798       98903.318       15811.208       2.9602500      -1.9415000     0.029250000       342.52400       4.7468023      0.68856427
       511.00000       290.98069       98904.961       15762.447       4.5867500      -1.2225000       1.1517500       342.76000       5.4319331      0.99913906
       516.00002       290.92623       98904.432       15700.843       4.7530000     -0.61800000      -1.1455000       342.47600       10.376240       1.3100982
       521.00003       290.84958       98903.115       15607.709       3.1487500      0.93100010     0.031000000       343.11500       4.4491744       1.2199901
       526.00000       290.70358       98915.298       15459.812       2.6370000     -0.77550010     0.056000000       343.25700       4.6671759       1.0940336
       531.00002       290.64070       98920.445       15352.606       3.5530000     -0.98175010     0.068250000       342.55600       5.0718690       1.3870233
       536.00003       290.61204       98913.181       15254.447       3.4512500     0.013750000     0.021500000       342.34500       2.0369597       1.0307201
       541.00000       290.55139       98915.720       15127.188       4.2477500      -1.4435000      0.14900000       342.02700       1.9085042       1.0861195
       546.00002       290.49767       98931.330       14963.195       3.5575000      -2.8280000     -0.40575000       342.84000       4.7885999       1.2619833
       551.00003       290.47624       98934.818       14902.089       3.9097500     -0.94850000      0.38675000       342.74000       6.0359892       1.0631262
       556.00000       290.43043       98930.299       14840.429       3.3350000      -1.0730000      0.27775000       343.97100       4.5285492      0.94818509
       561.00001       290.44616       98930.265       14858.942       4.5517500     -0.78775010     -0.72800000       341.87500       5.5905159      0.69716453
       566.00003       290.59543       98934.796       15028.484       3.8372500     -0.54875000     -0.75000010       342.78000       5.3833907      0.81824219
       571.00000       290.53150       98925.231       15048.544       4.8167500      -1.1250000     -0.60475000       342.22500     -0.52184236      0.94914136
       576.00001       290.37234       98903.166       15047.554       2.7622500     -0.60800000     -0.19875000       342.77600       5.6374529       1.0710266
       582.00002       290.20372       98910.457       14974.646       4.0215000     -0.67850010     -0.33375000       342.89000       6.5944804       1.2510053
       586.99999       290.07899       98905.532       14884.118       4.2522500     -0.94650010     -0.48500000       341.83100       4.8399273      0.99714082
       592.00001       290.03939       98900.327       14755.934       3.3780000     -0.94600000      0.23050000       342.87000       7.7871086       2.0622805
       597.00002       289.99967       98905.305       14642.818       3.3442500      -1.1090000     0.076500010       343.56200       3.4195317      0.89184743
       601.99999       289.89988       98905.838       14437.652       3.5670000       1.0070000     0.041250000       342.46000       7.1917339      0.90029530
