MIRICO/SHELL project - Processed LDS file generated on
Wed Jul 26 00:43:50 2017
Time stamp for record start
05/12/2017  13:22:59.0000
Nb of points in the record
         440
Beam position index
       3.0000000
Beam angle (degrees)
     -0.96000000
Open Path length (m)
       44.550000
****************** Temporal data record ************************
Elapsedtime_sec Temp_K Press_Pa Humidity_ppmv WindX_m/s WindY_m/s WindZ_m/s Speedofsound_m/s CH4vmr_ppmv CH4vmrerror_ppmv  
      0.00000000       289.03797       98906.156       13854.662       6.3832500      0.32925000      0.85725000       341.72200       2.0672404     0.017457827
       5.0000131       288.93192       98905.480       13779.839       6.1655000     -0.54350000     -0.28675000       341.63400       2.0297484     0.021455565
       10.000026       288.93756       98904.440       13786.358       4.5457500      -1.8687500      0.84200010       341.68500       2.0987730     0.020827518
       14.999999       288.98934       98904.952       13803.007       3.3550000      -1.8070000     -0.56300000       341.90400       1.9720159     0.017044554
       20.000012       289.01792       98905.900       13833.108       6.6342500      -3.3870000    -0.062750000       341.25500       2.0016323     0.013215910
       25.000025       289.10602       98904.392       13916.053       4.9702500      -3.2022500     -0.16375000       341.68300       2.0579318     0.022515978
       29.999998       289.12810       98905.242       13970.367       4.0855000      -3.1430000     -0.83700000       341.78100       1.9888190     0.010457886
       35.000011       289.08257       98910.713       13988.658       2.9750000      -1.3725000      0.47100000       342.04300       1.8347359     0.018660361
       40.000024       289.12051       98911.918       14080.842       2.6902500      -1.1027500      0.83975010       341.85900       1.9671151     0.011302500
       44.999997       289.21146       98910.141       14249.423       4.3055000      -1.4082500     -0.14575000       341.59000       2.0219382     0.026443738
       50.000010       289.21402       98910.082       14304.068       3.9400000      -2.8577500     -0.54425000       341.79000       1.9265742     0.014714028
       55.000024       289.19647       98911.314       14352.152       4.4860000     -0.74275000      0.26725000       341.42700       1.8728146     0.012384333
       60.000037       289.21644       98909.494       14365.155       2.6560000     -0.97900000     -0.61975000       341.72500       2.0200488     0.019448036
       65.000010       289.16797       98904.605       14275.106       5.7380000     -0.75675000      0.40950000       341.85200       1.9325137     0.019559782
       70.000023       289.22215       98904.391       14269.768       4.5887500      0.72200010      0.49975000       341.89800       2.0897755     0.023502798
       75.000036       289.39619       98905.540       14302.069       3.8992500      -1.2552500     -0.52775000       341.97800       2.0291209     0.015327394
       80.000009       289.45895       98904.579       14313.516       4.1550000     -0.13350000      0.46700000       341.93700       1.8943501    0.0094051166
       85.000022       289.52276       98905.102       14331.137       6.2950000      -1.6242500     -0.94275000       341.51100       2.0119848     0.015370277
       91.000029       289.43883       98909.286       14358.193       4.5142500     -0.63850000     -0.81325010       341.49700       2.0095083     0.019192355
       96.000002       289.39819       98906.567       14345.337       6.3980000      -2.8975000      0.29350000       341.22700       1.9883907     0.012580876
       101.00002       289.31460       98892.299       14288.280       5.5412500      -2.7337500     -0.63000010       341.48600       2.0282047     0.017544111
       106.00003       289.28116       98892.797       14246.038       6.0942500      -1.1850000      0.39750000       342.19100       1.9820802     0.024404745
       111.00000       289.28459       98898.211       14197.246       4.9087500     -0.64275000     -0.51900010       342.13100       2.0468741     0.020886045
       116.00001       289.34952       98906.607       14115.668       5.9000000      -2.9290000     0.050250000       341.69500       1.9320341     0.019765869
       121.00003       289.36977       98903.514       14084.705       5.9362500      -1.1602500     0.073500000       341.91600       2.0665028     0.024239936
       126.00000       289.39467       98905.398       14075.520       3.5022500     -0.59675000       1.2055000       342.32000       2.0088714     0.022743249
       131.00001       289.44642       98910.340       14092.099       3.5587500     -0.80025010      0.78075000       342.46700       1.9140256     0.016352817
       136.00003       289.49546       98905.366       14112.166       7.8147500      -1.9002500    -0.068500000       341.88000       2.0001095     0.015468619
       141.00000       289.61611       98900.449       14143.101       5.8722500     -0.78925000      0.18400000       341.77600       1.9990091     0.013854685
       146.00001       289.66904       98905.451       14190.621       4.3457500      -2.1672500     -0.16100000       342.27300       1.8561974     0.015158620
       151.00003       289.63995       98910.330       14275.998       6.4075000      -2.3432500      0.74450000       342.34800       2.0106026     0.014949840
       156.00000       289.64977       98905.388       14327.466       6.1022500      -2.3272500      0.28625000       342.16400       1.9765800     0.016242186
       161.00001       289.65953       98900.459       14369.336       6.0062500      -3.4292500       1.0047500       342.36600       1.9504073     0.017238613
       166.00002       289.63701       98905.801       14416.612       3.9002500      -2.3330000     0.035000000       342.34400       1.9037155     0.018302163
       171.00000       289.67033       98910.840       14450.763       6.7757500      -2.4157500     -0.66150000       341.41100       2.0627879     0.018908756
       177.00001       289.76010       98904.463       14454.039       5.2057500     -0.99800000      0.65400000       342.47400       2.0257717     0.014443763
       182.00002       289.79655       98903.854       14545.577       7.8832500      -3.9882500     -0.39050000       341.39500       2.1331092     0.022158843
       187.00003       289.85784       98906.593       14603.451       3.4172500     -0.87575010      0.25425000       342.96900       2.0630515     0.018543743
       192.00000       289.94435       98896.729       14640.476       5.9365000      -1.6460000     -0.30175000       341.43400       1.8707345     0.017987717
       197.00002       290.01368       98892.263       14711.657       4.0002500      -2.8330000     -0.12650000       342.38300       1.8454852     0.021577473
       202.00003       290.12892       98902.726       14804.740       3.6470000      -2.6977500      0.29875000       342.45700       1.9260909     0.012331781
       207.00000       290.17462       98907.510       14865.200       6.7050000      -4.0777500     -0.64450000       342.16400       1.9434577     0.016696965
       212.00002       290.16981       98906.095       14961.886       3.7705000      -3.6985000      0.69750010       342.05300       1.9749581     0.017392870
       217.00003       290.15708       98905.066       15007.391       5.6412500     -0.66600000    -0.097500000       342.70000       2.0070680     0.013831141
       222.00000       290.07506       98905.712       14981.795       5.4812500      -2.4067500     -0.25425000       342.08900       1.8130116     0.021606044
       227.00002       290.03605       98905.523       14968.646       4.8327500      0.86850010      0.70475010       341.45600       2.0276694     0.016132173
       232.00003       290.00908       98899.794       14944.525       3.8412500     -0.40650000    -0.098000000       342.33900       2.0137374     0.015833437
       237.00000       289.99049       98899.043       14916.923       2.8115000      -1.7107500     0.025000000       342.53900       2.0567302     0.020966536
       242.00002       290.00005       98905.126       14868.599       7.3275000      -2.3065000     -0.39075000       341.66400       2.1281927     0.021992905
       247.00003       289.99993       98905.976       14841.296       7.4960000      -3.4580000     -0.23200000       341.93100       2.0689958     0.017391401
       252.00000       290.00063       98901.733       14801.212       6.2757500      -1.3065000       1.8257500       342.62500       1.9427456     0.013849376
       257.00001       290.00090       98905.063       14799.597       3.4065000      -1.3367500       1.2115000       342.84600       1.7966472     0.017142239
       262.00003       290.02825       98918.454       14878.352       7.5897500      -1.4665000     -0.55850010       341.92700       1.9875346     0.020959869
       268.00003       289.99818       98916.017       14875.783       7.3320000     -0.80700000   -0.0055000000       342.05200       1.9308643     0.013948579
       273.00001       289.93544       98902.881       14828.982       5.5270000      -2.7847500      -1.2960000       342.22700       2.1024940     0.026863351
       278.00002       289.88150       98904.469       14819.824       6.1400000      -1.4982500      0.14650000       342.17600       1.8680742     0.012553565
       283.00003       289.78478       98908.281       14767.208       5.1245000     -0.29000000     -0.15950000       342.65700       2.0209402     0.017941569
       288.00001       289.71909       98903.344       14754.687       6.5575000     -0.77825000    0.0017500000       342.21700       2.0057622     0.017355545
       293.00002       289.69447       98902.635       14860.660       5.4275000      -2.7877500      0.81275000       342.38800       2.1513448     0.023328733
       298.00003       289.63032       98907.642       14830.347       6.1370000      -1.0302500    -0.093750010       342.15100       2.0362556     0.013993258
       303.00001       289.52927       98905.997       14712.447       6.1552500     -0.44950000      0.24000000       342.03500       1.8063591     0.016725127
       308.00002       289.47282       98903.724       14631.688       4.7462500      0.63925000     -0.26000000       342.23200       1.9610551     0.014371867
       313.00003       289.38362       98914.963       14474.019       5.4952500     -0.52750000     -0.64400010       341.83800       1.9294346     0.013351002
       318.00001       289.37815       98918.499       14389.067       5.0800000      0.34775000      0.97675010       341.98300       1.8829460     0.018403286
       323.00002       289.45111       98903.075       14326.872       6.5430000     -0.39025000    -0.079250000       341.66800       2.0225462     0.018066115
       328.00003       289.51844       98903.040       14334.122       6.1882500     -0.95075010     -0.65800010       341.84500       2.0507924     0.024627165
       333.00000       289.64001       98921.439       14382.583       5.5927500     -0.80775000     -0.11975000       341.62500       2.0360777     0.018418167
       338.00002       289.73931       98923.044       14471.555       5.4835000      -1.3055000     -0.66425000       341.89800       1.9166585     0.014066644
       343.00003       289.89097       98914.040       14683.398       3.3522500     -0.96975000     -0.31525000       342.02500       1.8901961     0.010193603
       348.00000       289.93580       98915.410       14819.353       4.7507500     -0.84350000     0.045500000       342.27400       1.7678428     0.024969052
       353.00002       289.91365       98919.786       14977.733       4.3802500      -1.6687500     -0.62300000       341.97100       2.0026163     0.015858583
       359.00002       289.90219       98912.561       15072.016       5.1185000      -2.0457500     -0.45775000       341.95600       2.0043558     0.018090530
       364.00000       289.80137       98903.139       15096.600       5.1570000      -1.3155000      0.64500000       341.80600       1.7996057     0.016988076
       369.00001       289.77358       98905.315       15082.322       2.4345000      -1.1050000     -0.15875000       342.17900       2.1449550     0.020677274
       374.00002       289.79999       98907.292       14999.477       4.5362500      0.59050010     -0.16000000       342.02000       1.9828097     0.017117836
       379.00004       289.79999       98902.358       14930.976       3.7597500      -1.6637500      0.69450000       342.27700       1.9808339     0.020818782
       384.00001       289.77661       98905.792       14798.245       3.5917500     -0.87600000     -0.52575000       342.47100       1.9324884     0.012415596
       389.00002       289.80939       98907.422       14746.657       3.3265000       1.2090000      0.11950000       342.65600       1.8661635     0.011668076
       394.00004       289.87302       98894.578       14720.080       5.4010000    -0.074500000     -0.26250000       342.08300       2.0057735     0.025142049
       399.00001       289.92952       98892.041       14711.661       4.2445000     -0.44800000      0.50400000       342.95100       2.0128704     0.027212546
       404.00002       290.05342       98904.749       14775.594       5.9667500     -0.70300000     -0.42175000       342.09000       1.9538945     0.016569530
       409.00003       290.08515       98908.555       14773.642       3.6572500      -3.6377500     -0.47325000       342.58800       1.8687771     0.014682196
       414.00001       290.02409       98902.357       14720.193       3.9697500      -1.2712500       1.2757500       342.20000       1.9829223     0.014735590
       419.00002       290.06647       98906.223       14741.899       5.8905000      -1.1602500     -0.89475010       342.16400       2.1065532     0.019692573
       424.00003       290.10411       98922.153       14770.050       5.2432500      0.65550010      0.80900000       343.06900       1.9575795     0.015531060
       429.00001       290.18185       98922.775       14819.060       4.6897500     -0.40125000     -0.35250000       342.63400       1.9522996     0.012640420
       434.00002       290.36801       98914.280       14914.824       4.4230000      0.64350000    -0.047500000       342.36400       1.7339119     0.017137560
       439.00003       290.46553       98915.891       15027.150       3.8575000     -0.30475000     -0.20725000       341.67000       1.8987950     0.010563572
       444.00001       290.52789       98918.665       15125.154       6.0795000     0.099250000     -0.75775000       341.55100       2.0670377     0.019506346
       450.00001       290.60321       98910.711       15326.579       4.5872500     -0.46325000      0.11725000       341.65500       1.8846007     0.017070362
       455.00003       290.64094       98903.465       15603.663       5.1767500     -0.45550000     -0.15975000       341.99900       1.9488265     0.011585604
       460.00000       290.69101       98906.228       15763.358       4.6822500    -0.060000000     -0.26675000       341.96000       2.0166220     0.015292303
       465.00001       290.74906       98903.649       15934.898       3.7812500      0.20800000     -0.16225000       342.13900       2.0588205     0.020338776
       470.00003       290.78008       98904.267       15999.271       3.1805000     -0.31400000    -0.078750010       343.07300       1.6908712     0.018885327
       475.00000       290.78434       98922.930       15960.909       4.4127500       1.9385000    -0.028250000       342.83900       1.9629096     0.016786589
       480.00001       290.83335       98924.459       15946.200       2.2247500     0.086750000      0.91900000       343.63000       1.6840866     0.024118440
       485.00002       290.89185       98908.078       15872.813       2.9152500     -0.37100000      0.42900000       342.77400       1.9488084     0.015655299
       490.00000       290.93196       98909.640       15844.348       2.2115000     -0.88475010     -0.25825000       342.65500       2.0454934     0.016691699
       495.00001       291.00721       98924.178       15823.041       4.6290000      -1.6547500      0.42400000       343.04100       1.8298894     0.013111298
       500.00002       291.03000       98918.812       15803.302       4.0730000      -1.6222500     -0.22875000       343.02500       2.0107426     0.018591477
       505.00000       291.01798       98903.318       15811.208       1.7670000      -2.4195000      0.93450000       343.35800       1.8211876     0.014681193
       510.00001       290.98069       98904.961       15762.447       3.9782500      -1.3085000      0.24325000       342.99900       1.9869614     0.024079193
       515.00002       290.92623       98904.432       15700.843       5.0855000      -1.6762500     -0.54825000       343.25100       1.9600958     0.011922618
       520.00004       290.84958       98903.115       15607.709       3.3087500    -0.016500000      0.62375000       343.99300       1.9316503     0.012630368
       525.00001       290.70358       98915.298       15459.812       3.0782500     -0.35650000      0.34200000       343.55000       2.0005570     0.013776837
       530.00002       290.64070       98920.445       15352.606       3.3215000     -0.85900000     -0.37175000       342.84200       1.9768649     0.019087045
       535.00004       290.61204       98913.181       15254.447       4.3442500     -0.90375010     -0.54675000       342.99800       1.9489022     0.014362791
       541.00000       290.52430       98925.810       15040.940       4.7430000      -2.1060000      0.14875000       342.45500       1.7555700     0.014372486
       546.00002       290.49233       98932.331       14947.777       4.0950000      -1.7177500    -0.035250000       342.91300       1.7736911     0.011211299
       551.00003       290.44439       98930.306       14869.131       2.8947500     -0.34500000      0.20450000       343.06600       1.9753547     0.018555828
       556.00000       290.43062       98930.294       14839.298       3.0520000     -0.31400000   -0.0022500000       343.59700       1.9157055     0.014766922
       561.00001       290.45373       98930.254       14869.905       3.3362500     -0.73075000     0.091500010       342.20200       1.8420901     0.011730643
       566.00003       290.58871       98933.391       15035.329       6.1292510      -1.0280000     -0.59350000       342.24800       1.8919564     0.014061848
       571.00000       290.50962       98922.556       15048.273       4.7350000      -1.1747500     -0.16050000       341.97500       1.8475379     0.018298741
       576.00001       290.35555       98902.571       15042.559       3.9237500     -0.47775000      0.85650000       342.41700       1.9779840     0.014008065
       581.00003       290.20372       98910.457       14974.646       4.3220000     -0.47250000     -0.35425000       343.10500       1.7946694     0.014036503
       586.00000       290.07899       98905.532       14884.118       2.9812500     -0.10675000      0.46425000       343.16600       1.8226381     0.013690169
       591.00001       290.03939       98900.327       14755.934       3.2297500      -2.8332500      0.45650000       342.45000       1.8488243     0.013874187
       596.00003       289.99967       98905.305       14642.818       3.5017500     -0.64625000     -0.51175000       342.19100       1.9092675     0.016538721
       601.00000       289.89988       98905.838       14437.652       3.1572500      0.26975000      0.48525000       343.16300       1.8856021     0.013242310
