MIRICO/SHELL project - Processed LDS file generated on
Wed Jul 26 01:51:38 2017
Time stamp for record start
05/12/2017  13:22:59.0000
Nb of points in the record
         440
Beam position index
       4.0000000
Beam angle (degrees)
    -0.040000000
Open Path length (m)
       98.010000
****************** Temporal data record ************************
Elapsedtime_sec Temp_K Press_Pa Humidity_ppmv WindX_m/s WindY_m/s WindZ_m/s Speedofsound_m/s CH4vmr_ppmv CH4vmrerror_ppmv  
      0.00000000       289.03797       98906.156       13854.662       6.2455000      -2.6630000      0.52325000       341.65800       1.9066206    0.0097301961
       5.0000131       288.93192       98905.480       13779.839       5.2642500      -1.1620000      0.22225000       341.70300       1.9144667    0.0098696433
       10.000026       288.93756       98904.440       13786.358       3.8075000      -1.6972500     0.099750000       341.67800       1.9565068     0.012415582
       14.999999       288.98934       98904.952       13803.007       6.4322500      -1.3155000     -0.51900010       341.30700       1.9118872    0.0094633124
       20.000012       289.01792       98905.900       13833.108       6.3537500      -3.0490000     -0.56700000       341.17800       1.8975052     0.010071606
       25.000025       289.10602       98904.392       13916.053       4.7405000     -0.97750000     -0.58925000       341.79500       1.9203387    0.0096931858
       29.999998       289.12810       98905.242       13970.367       3.6830000      -3.1915000    -0.042250000       341.62800       1.9737430     0.011907613
       35.000011       289.08257       98910.713       13988.658       2.9800000     -0.91500000      0.36075000       342.13300       1.9245777     0.010952449
       40.000024       289.12051       98911.918       14080.842       3.2147500      -2.0502500      0.19825000       341.82300       1.9231761     0.010456831
       44.999997       289.21146       98910.141       14249.423       4.9800000      -1.5677500      0.48950000       341.68300       1.9394930     0.011690843
       51.000005       289.18053       98911.890       14315.067       4.4250000      -2.7997500      0.16475000       341.68400       1.9806766     0.013040181
       56.000018       289.20046       98911.047       14357.722       3.6352500      -1.9167500      0.20350000       341.95600       1.9423440     0.011161684
       61.000031       289.16006       98905.656       14293.477       3.9675000      -2.4290000      0.79050000       341.91800       1.9426484     0.011133935
       66.000004       289.17487       98904.464       14272.480       7.7857500     -0.91225000     -0.53325000       341.06800       1.9117955     0.010418278
       71.000017       289.23889       98904.494       14271.022       3.6737500     -0.75125000      0.46525000       341.80100       1.9101481     0.010747556
       76.000030       289.41070       98905.347       14304.287       5.1395000      -1.1325000      0.84000000       341.88300       1.9527731    0.0093790957
       81.000003       289.46857       98904.388       14315.923       4.3097500     0.028500000      0.34475000       341.90000       1.9433048     0.010791900
       86.000016       289.52382       98905.312       14332.601       6.7137500      -1.9487500     -0.60200010       341.73800       1.8891355    0.0099683584
       91.000029       289.43883       98909.286       14358.193       5.2620000      -1.2945000      0.26075000       341.93400       1.9244238    0.0097522641
       96.000002       289.39819       98906.567       14345.337       5.7017500      -2.0312500      0.61700000       342.11400       1.9021074    0.0089222333
       101.00002       289.31460       98892.299       14288.280       8.2055010      -2.1082500     -0.32750000       341.48700       1.9080533    0.0097843567
       106.00003       289.28116       98892.797       14246.038       6.0885000      -1.5662500      0.91325000       342.13200       1.9420274    0.0099126265
       111.00000       289.28459       98898.211       14197.246       5.5037500      -1.6777500     -0.38800000       342.42000       1.9309068     0.011345443
       116.00001       289.34952       98906.607       14115.668       5.9767500      -2.7597500     -0.68850000       341.64900       1.9552007    0.0098352123
       121.00003       289.36977       98903.514       14084.705       5.1897500      -1.8615000      0.18600000       341.76600       1.8720677     0.010920617
       126.00000       289.39467       98905.398       14075.520       3.9175000     -0.79325000      0.89000000       342.24300       1.9415713     0.011456690
       131.00001       289.44642       98910.340       14092.099       3.2187500      -1.4840000      0.36975000       342.64100       1.9011866     0.010346917
       136.00003       289.49546       98905.366       14112.166       8.6985010      -1.0122500    -0.062500000       341.63900       1.9318719    0.0094322368
       142.00003       289.62965       98901.451       14151.643       6.3270000     -0.85725000     -0.19700000       341.85300       1.9143989     0.010219582
       147.00001       289.67521       98906.450       14201.573       6.7060000      -2.9735000      0.44425000       341.93900       1.8744322     0.010463331
       152.00002       289.64192       98909.341       14287.058       7.6342500      -1.4242500     0.020500000       342.36600       1.9132549     0.010801937
       157.00003       289.65172       98904.401       14336.609       7.4305010      -1.8082500     0.035250000       342.49400       1.9121063     0.011997184
       162.00001       289.62880       98901.710       14381.566       6.7935000      -3.1760000     0.051750000       342.29500       1.8751318     0.011125805
       167.00002       289.64162       98906.816       14424.300       5.2820000     -0.34950000      0.20325000       342.40200       1.9362112     0.012220847
       172.00003       289.70969       98909.521       14416.042       5.7180000      -3.3760000     -0.68100010       341.92000       1.8563645     0.012092880
       177.00001       289.76010       98904.463       14454.039       6.1750000      -1.4557500      0.73800000       342.23100       1.9171717     0.010384162
       182.00002       289.79655       98903.854       14545.577       7.3377500      -4.1657500      0.14250000       341.70800       1.8860213     0.012437623
       187.00003       289.85784       98906.593       14603.451       4.3380000     -0.77100000      0.37575000       342.98300       1.8926972     0.013523845
       192.00000       289.94435       98896.729       14640.476       5.8635000      -2.2305000     -0.11775000       341.74900       1.8236551     0.014296981
       197.00002       290.01368       98892.263       14711.657       3.2010000      -2.5817500    0.0045000000       342.80600       1.9439383     0.011173239
       202.00003       290.12892       98902.726       14804.740       3.5625000      -2.2625000     -0.23450000       342.48600       1.8914888     0.011340001
       207.00000       290.17462       98907.510       14865.200       6.5657500      -3.4335000    -0.076250000       342.19100       1.8806913     0.013007106
       212.00002       290.16981       98906.095       14961.886       3.8562500      -2.7407500     -0.38600000       342.59900       1.8465616     0.013369050
       217.00003       290.15708       98905.066       15007.391       4.3435000     -0.71625010     -0.57950000       342.52400       1.8728291     0.011125758
       222.00000       290.07506       98905.712       14981.795       4.4892500      -1.9700000     -0.13900000       341.87800       1.8954670    0.0092973575
       227.00002       290.03605       98905.523       14968.646       4.5310000     -0.40600000     -0.84925000       342.15600       1.9068415    0.0090997012
       233.00002       290.00437       98899.448       14939.459       4.1837500     -0.98200010     0.079000000       342.62900       1.8976344    0.0097564483
       238.00004       289.98826       98899.188       14910.721       3.0120000      -1.4090000      0.35650000       342.38700       1.9179558     0.010468893
       243.00001       290.00003       98905.394       14862.533       5.1897500      -1.5187500     -0.91825000       341.22700       1.8907373    0.0094319747
       248.00002       289.99991       98905.997       14836.743       7.6102500      -2.4587500      0.18725000       341.39300       1.9025547     0.010701838
       253.00004       290.00068       98902.196       14798.892       5.7722500      -3.4592500     -0.37425000       341.51700       1.8773371     0.010869854
       258.00001       290.00095       98906.032       14802.269       3.0047500     -0.27050000       1.6327500       343.12300       1.9038711    0.0099636273
       263.00002       290.02573       98918.546       14880.494       7.0175000      -1.2335000     -0.12525000       341.89700       1.9277697    0.0096757069
       268.00003       289.99818       98916.017       14875.783       5.8762500      -1.2285000     -0.53650000       342.16600       1.9032002     0.010318454
       273.00001       289.93544       98902.881       14828.982       4.7675000      -2.4202500     -0.10775000       341.88800       1.8822115     0.011789780
       278.00002       289.88150       98904.469       14819.824       5.7020000      -3.1382500    0.0065000000       342.30000       1.8805803     0.010832808
       283.00003       289.78478       98908.281       14767.208       4.7865000     -0.41925000    -0.094250000       342.80600       1.8766350    0.0098325375
       288.00001       289.71909       98903.344       14754.687       7.2237500      -1.6317500      0.24300000       341.97400       1.9555456     0.010127936
       293.00002       289.69447       98902.635       14860.660       4.8585000      -2.5290000     -0.19925000       341.90400       1.9230037     0.010184324
       298.00003       289.63032       98907.642       14830.347       6.0415000     -0.60675000       1.0722500       342.47200       1.9339558     0.010085194
       303.00001       289.52927       98905.997       14712.447       5.7522500      -1.5625000       1.8337500       341.90700       1.8882687    0.0096784357
       308.00002       289.47282       98903.724       14631.688       5.0815000       1.3420000       1.5027500       342.15800       1.9015146     0.011551016
       313.00003       289.38362       98914.963       14474.019       5.7547500     -0.19600000     -0.17025000       341.81600       1.9104952    0.0086640750
       319.00000       289.38312       98918.610       14376.143       6.6475010      0.27875000     -0.14800000       341.66000       1.8829299    0.0098542825
       324.00001       289.46261       98902.576       14324.503       6.1707500     -0.89200000       1.0082500       341.89400       1.8299676     0.019578692
       329.00003       289.53485       98903.772       14341.315       5.6672500      -1.0352500     0.036000000       341.96500       1.8879280     0.013530706
       334.00000       289.65987       98922.153       14396.434       5.8350010      -1.7210000     -0.48550000       341.70800       1.9237283    0.0099608315
       339.00001       289.75917       98922.775       14495.301       5.0042500      -1.5992500      0.27550000       341.97700       1.8570683     0.014227371
       344.00003       289.90393       98914.217       14711.663       4.9942500      -1.1612500      0.38500000       342.03100       1.9010813     0.010090630
       349.00000       289.93878       98915.829       14844.892       5.3457500     -0.77050010     -0.41025000       342.09200       1.9429281     0.010180742
       354.00001       289.91425       98918.833       14998.081       5.2615000      -1.5512500     0.093000000       341.65100       1.9106393    0.0086187771
       359.00002       289.90219       98912.561       15072.016       5.9742500      -2.2897500     -0.59250000       341.73100       1.9259970    0.0089446004
       364.00000       289.80137       98903.139       15096.600       4.2807500      -2.5697500     -0.30450000       342.14200       1.9322328    0.0075887549
       369.00001       289.77358       98905.315       15082.322       3.2325000     -0.37825000      0.58000000       342.42600       1.9075256    0.0094045930
       374.00002       289.79999       98907.292       14999.477       5.0652500      0.66550000     0.083750000       341.92200       1.8982982    0.0093360838
       379.00004       289.79999       98902.358       14930.976       5.1007500      -1.9307500     -0.19075000       342.26000       1.9554143    0.0093167080
       384.00001       289.77661       98905.792       14798.245       4.0062500     -0.98000000      0.16525000       342.37000       1.9190560    0.0085959400
       389.00002       289.80939       98907.422       14746.657       3.0295000     -0.31900000     -0.47875000       341.57400       1.8871415    0.0099498081
       394.00004       289.87302       98894.578       14720.080       4.8925000     -0.69550000       1.0105000       342.40100       1.8948699    0.0092565655
       399.00001       289.92952       98892.041       14711.661       3.6655000     -0.81950000      0.76175000       342.99600       1.9360961    0.0096801119
       404.00002       290.05342       98904.749       14775.594       5.4460000     -0.33800000     -0.28050000       342.15200       1.9066569     0.010740481
       410.00003       290.08690       98909.016       14771.086       2.7052500      -1.7255000      0.76650010       343.00900       1.8735349    0.0099141026
       415.00000       290.03060       98902.834       14722.715       2.5880000       1.3910000       1.1572500       342.83100       1.8936845    0.0095815355
       420.00002       290.07790       98907.440       14748.973       4.5917500       1.4820000    -0.025000000       342.35700       1.9261770    0.0085514878
       425.00003       290.11671       98922.671       14777.773       5.4337500      0.13050000      0.10450000       341.37600       1.8436578     0.011623165
       430.00000       290.20182       98922.309       14831.987       4.3262500      -1.7222500    -0.090750000       342.62500       1.9115446    0.0098329097
       435.00001       290.38947       98914.505       14935.817       5.8420000      0.71125000     0.050500000       342.72700       1.9178547    0.0089080109
       440.00003       290.48209       98916.358       15051.834       5.5137500     -0.29425000     -0.41525000       341.89100       1.9427641    0.0085535319
       445.00000       290.54170       98917.592       15154.351       4.5892500     -0.17975000     -0.16675000       342.07100       1.9187461     0.011055788
       450.00001       290.60321       98910.711       15326.579       4.2277500     -0.13700000     0.039500000       341.90400       1.9205855    0.0078517362
       455.00003       290.64094       98903.465       15603.663       5.0870000      -1.8855000      0.87700000       342.19800       1.9443708    0.0091079973
       460.00000       290.69101       98906.228       15763.358       4.3465000     0.081000000      0.16075000       342.30700       1.9240109    0.0087452516
       465.00001       290.74906       98903.649       15934.898       3.7150000      0.24075000      0.28750000       342.57400       1.9596026    0.0089292913
       470.00003       290.78008       98904.267       15999.271       2.9075000     -0.19725000     -0.28400000       343.07300       1.9020762    0.0082085956
       475.00000       290.78434       98922.930       15960.909       3.2657500     -0.29275000     -0.46125000       343.38700       1.9162573    0.0090770539
       480.00001       290.83335       98924.459       15946.200       3.9820000     -0.50000000     -0.12750000       341.93400       1.9017581    0.0075268005
       485.00002       290.89185       98908.078       15872.813       3.1480000     -0.12475000      0.22925000       342.69300       1.9090014    0.0092552526
       490.00000       290.93196       98909.640       15844.348       2.6415000     -0.70350000     0.099750000       342.29800       1.8893763    0.0093031695
       495.00001       291.00721       98924.178       15823.041       4.5907500      -1.3272500      0.48525000       342.97400       1.8581955     0.010038416
       501.00002       291.03008       98904.664       15833.803       3.5780000     -0.10350000     -0.68025000       341.63900       1.8918019    0.0086792486
       506.00003       291.01250       98903.351       15803.275       2.8720000      -1.7037500    -0.015250000       343.06400       1.9052708    0.0088397280
       511.00000       290.96986       98907.246       15755.682       3.3992500      -2.7860000     0.066000000       343.27400       1.7688005     0.017559141
       516.00002       290.91287       98903.973       15684.391       3.8190000      -2.0667500      0.69375000       343.35700       1.9791585    0.0084580988
       521.00003       290.83130       98903.144       15585.838       3.5060000      -1.0005000     0.041250000       341.97500       1.8920283    0.0097094573
       526.00000       290.68905       98916.533       15438.069       2.7747500     -0.56600000     -0.22075000       342.89400       1.9010609     0.011262486
       531.00002       290.63106       98921.166       15331.610       3.5667500     -0.60900000      0.46700000       343.02800       1.8838164     0.011704986
       536.00003       290.59991       98913.389       15229.815       3.1427500      -1.1185000     -0.78600000       342.76500       1.9025965    0.0093781603
       541.00000       290.52430       98925.810       15040.940       4.1840000      -1.3547500     -0.26050000       342.42300       1.8955299    0.0081317929
       546.00002       290.49233       98932.331       14947.777       2.6850000      -1.1760000      0.90600000       343.59000       1.9158940    0.0092141650
       551.00003       290.44439       98930.306       14869.131       3.4015000     -0.63975000      0.25550000       343.32300       1.8553216     0.011112208
       556.00000       290.43062       98930.294       14839.298       3.3127500     -0.17200000     -0.41775000       343.12100       1.8502061     0.010312628
       561.00001       290.45373       98930.254       14869.905       2.8745000     -0.84900000     -0.38600000       342.33400       1.8752811    0.0089359859
       566.00003       290.58871       98933.391       15035.329       5.3567500      -2.2600000     -0.68275000       342.59200       1.8889558    0.0095338779
       571.00000       290.50962       98922.556       15048.273       4.0902500     -0.74700000     -0.18875000       342.11600       1.9099766    0.0085636147
       576.00001       290.35555       98902.571       15042.559       3.9982500      -1.1932500      0.67650000       342.64300       1.9000348    0.0090094350
       581.00003       290.20372       98910.457       14974.646       3.7362500      -2.3002500   -0.0067500000       343.42000       1.9344202    0.0096867202
       586.00000       290.07899       98905.532       14884.118       4.1207500      -1.4092500     -0.14600000       342.44800       1.9288372    0.0091740423
       592.00001       290.03145       98901.322       14733.867       3.6172500      -1.8577500      0.45975000       341.54000       1.8717814     0.012242932
       597.00002       289.99171       98906.300       14619.365       3.5657500      0.10275000      0.17525000       342.73700       1.8623640     0.010796053
       602.00003       289.89091       98905.072       14414.324       3.2692500      0.25975000      0.14525000       343.04300       1.9064683    0.0099572414
