MIRICO/SHELL project - Processed LDS file generated on
Wed Jul 26 01:19:48 2017
Time stamp for record start
05/12/2017  13:22:59.0000
Nb of points in the record
         440
Beam position index
       5.0000000
Beam angle (degrees)
       8.5250000
Open Path length (m)
       83.010000
****************** Temporal data record ************************
Elapsedtime_sec Temp_K Press_Pa Humidity_ppmv WindX_m/s WindY_m/s WindZ_m/s Speedofsound_m/s CH4vmr_ppmv CH4vmrerror_ppmv  
      0.00000000       289.03797       98906.156       13854.662       5.8610000      -2.5252500     -0.24000000       341.38700       1.8500318     0.013371808
       5.0000131       288.93192       98905.480       13779.839       4.4247500      -2.1390000     -0.42850000       341.73400       1.9092590     0.010621823
       11.000021       288.97532       98904.194       13793.500       4.6677500      -1.4050000    -0.078000000       341.66300       1.9851021    0.0097726360
       16.000034       288.99407       98905.142       13807.405       6.7252500     -0.76625000      -1.2692500       341.12100       1.9444262    0.0095935004
       21.000007       289.02512       98906.090       13841.565       6.4677500      -3.4617500     -0.39950000       341.13800       2.0741557     0.016150989
       26.000020       289.11244       98904.459       13927.189       4.8750000      -2.2862500      0.19325000       341.69400       1.9458977    0.0088280955
       31.000033       289.12950       98905.566       13980.813       3.8017500      -1.9497500     -0.60225000       341.71600       1.9390385    0.0098716304
       36.000006       289.08815       98911.053       14004.471       3.7727500      -1.1107500      0.97875010       341.92700       1.9086431     0.010304732
       41.000019       289.19085       98910.189       14181.352       4.3872500      -1.5382500      0.72300000       341.93300       1.9306623     0.010106064
       46.000032       289.21404       98910.129       14263.069       5.4447500      0.35600000      0.28300000       341.76000       1.9224163     0.010315844
       51.000005       289.18053       98911.890       14315.067       4.6700000      -1.8295000      0.19375000       341.67400       1.8858981     0.011451945
       56.000018       289.20046       98911.047       14357.722       3.4817500      0.10825000      0.18125000       341.70600       1.9362988    0.0092481722
       61.000031       289.16006       98905.656       14293.477       6.0335000      -2.0550000     -0.53900000       341.41600       1.8861453     0.011860153
       66.000004       289.17487       98904.464       14272.480       6.7950010      0.51000010     -0.85525010       341.20000       1.9471160    0.0093257304
       71.000017       289.23889       98904.494       14271.022       4.1732500      -1.1897500      0.55000000       341.61000       1.9181625    0.0095911608
       76.000030       289.41070       98905.347       14304.287       4.1422500      -1.1477500       1.0962500       341.67200       1.9272438     0.010094068
       81.000003       289.46857       98904.388       14315.923       8.1212500      0.41400000      0.16375000       341.83700       2.0059916    0.0096881716
       86.000016       289.52382       98905.312       14332.601       5.3362500      -2.3420000       1.0467500       342.07100       1.8902441     0.012225106
       91.000029       289.43883       98909.286       14358.193       5.0332500     -0.78200010     -0.19500000       341.72900       1.9019440     0.014656961
       96.000002       289.39819       98906.567       14345.337       6.0027500      -1.8897500     -0.71025000       341.67700       1.9008195     0.016249289
       102.00001       289.30496       98892.005       14280.350       5.5270000      -1.0215000    -0.024000000       341.68200       1.9333927     0.011468583
       107.00002       289.27890       98893.486       14236.810       6.8992510     -0.68600000      0.23800000       341.94900       1.8724418     0.013243638
       112.00004       289.33356       98907.352       14154.312       6.6885000    -0.059000000     -0.29550000       341.24000       1.9518862     0.010206919
       117.00001       289.35355       98906.180       14107.932       5.1987500     -0.84675000    -0.065500010       342.02900       1.9432713     0.010441318
       122.00002       289.36221       98901.292       14082.099       5.7380000     -0.74050000      0.11950000       341.47300       1.9128260     0.011721232
       127.00004       289.40405       98906.426       14075.732       3.1860000     -0.64800000      0.78175000       342.53000       1.9149055     0.010279587
       132.00001       289.45527       98909.351       14095.219       2.8535000      -2.1930000      0.14500000       342.65900       1.9650855    0.0099329310
       137.00002       289.50670       98904.363       14117.521       8.2785010      -2.4420000     -0.10450000       341.24500       1.8815270     0.019402270
       142.00003       289.62965       98901.451       14151.643       7.4625010      -1.3372500      0.18825000       341.40400       1.9181863     0.011718902
       147.00001       289.67521       98906.450       14201.573       8.2115000      -4.0595000      -1.2377500       341.29300       1.8983682     0.010935680
       152.00002       289.64192       98909.341       14287.058       5.1567500      0.32075000      0.63050000       342.95400       1.8989715     0.012544163
       157.00003       289.65172       98904.401       14336.609       7.3232500      -2.9127500     -0.39550000       341.60700       1.9238939     0.011140924
       162.00001       289.62880       98901.710       14381.566       4.6112500     -0.53975000      0.30450000       342.56900       1.8672248     0.014376352
       167.00002       289.64162       98906.816       14424.300       6.7670000      -3.7857500     -0.20825000       340.97900       1.9031540     0.012411665
       172.00003       289.70969       98909.521       14416.042       5.7010000      -2.0625000      0.69550000       342.47400       1.9288925     0.015950054
       177.00001       289.76010       98904.463       14454.039       5.9312500      -2.0615000      0.46150000       342.34200       1.9370561     0.010832932
       182.00002       289.79655       98903.854       14545.577       5.7715000     -0.68350010      0.47050000       342.25900       1.9111539     0.016308318
       187.00003       289.85784       98906.593       14603.451       5.9640000      -1.1312500      0.49700000       342.52300       1.9387949     0.013177755
       193.00000       289.95821       98895.441       14653.962       4.4530000      -3.1087500     -0.12475000       342.62300       1.9477794     0.012696714
       198.00001       290.02754       98891.961       14727.023       3.6865000      -2.5355000      0.74025010       342.31300       1.8852994     0.017180301
       203.00003       290.14106       98903.883       14817.161       3.2310000      -1.6480000     0.075000000       342.61900       1.9002772     0.013841548
       208.00000       290.17926       98908.167       14876.792       6.1262500      -2.7910000     -0.51625000       342.29100       1.9201750     0.012798197
       213.00001       290.16926       98905.888       14973.934       4.4580000      -1.4417500     0.067500000       342.99400       1.8994775     0.016446272
       218.00002       290.15153       98904.862       15012.064       4.5080000     -0.54350000     -0.29350000       342.50200       1.8721461     0.016646398
       223.00000       290.06621       98905.772       14979.787       5.3025000      -1.2492500     0.010750000       342.03800       1.8638420     0.014734580
       228.00001       290.02981       98905.338       14965.088       4.0482500     -0.76550000     -0.68525000       342.28500       1.8788792     0.017091960
       233.00002       290.00437       98899.448       14939.459       4.0277500      -1.7750000     -0.24875000       342.74600       1.9238642     0.010740831
       238.00004       289.98826       98899.188       14910.721       4.6095000      -1.8295000     -0.68850000       342.05100       1.9064703     0.011290154
       243.00001       290.00003       98905.394       14862.533       4.2107500      -3.9165000      0.77200000       343.19900       1.8832208     0.012717406
       248.00002       289.99991       98905.997       14836.743       6.5712500      -3.3987500      0.18325000       341.48500       1.8806252     0.011810110
       253.00004       290.00068       98902.196       14798.892       7.4085000      -1.5200000      0.32950000       342.54700       1.9078037     0.013502863
       258.00001       290.00095       98906.032       14802.269       4.2087500      -2.0657500       1.7397500       342.95100       1.8364026     0.022021893
       263.00002       290.02573       98918.546       14880.494       7.9982500     -0.86575000     -0.43050000       341.99400       1.9604299     0.011254428
       268.00003       289.99818       98916.017       14875.783       6.4652500      -1.9107500       1.6230000       342.78900       1.8867031     0.021151307
       273.00001       289.93544       98902.881       14828.982       6.8890000      -1.7275000     -0.24100000       341.99500       1.8276105     0.017237317
       278.00002       289.88150       98904.469       14819.824       4.5855000     -0.93150000     -0.14075000       342.23900       1.9051698     0.018498874
       284.00003       289.77066       98907.292       14762.619       5.8710000      0.60975000      0.59075000       342.28300       1.9070526     0.010473969
       289.00000       289.70743       98902.359       14755.303       7.0800000     -0.98250010     -0.17825000       341.67900       1.8529468     0.022857754
       294.00001       289.68270       98903.645       14858.953       4.7610000      -1.7057500    -0.042750000       342.27200       1.9038572     0.021132957
       299.00003       289.61590       98908.630       14817.776       6.6177500      -1.0047500     -0.91975000       342.16300       1.9474104     0.011745301
       304.00000       289.51698       98905.344       14697.484       6.6435000      -1.5197500     -0.72050010       341.21600       1.9287991     0.011101829
       309.00001       289.46302       98903.566       14613.757       6.2887500     -0.53300010      0.59200000       341.88400       1.9431988     0.012766775
       314.00003       289.37849       98916.068       14454.296       4.8692500      0.48425000      0.58375000       342.00200       1.9009638     0.012318144
       319.00000       289.38312       98918.610       14376.143       6.1047500      0.72775010    -0.011250000       341.73400       1.9064047     0.012207958
       324.00001       289.46261       98902.576       14324.503       5.6577500      -1.7837500     -0.12175000       341.65200       1.8643402     0.012939204
       329.00003       289.53485       98903.772       14341.315       5.0960000      -1.2820000     -0.34300000       342.03300       1.8722208     0.016196981
       334.00000       289.65987       98922.153       14396.434       6.1547500      -1.4135000     -0.38025000       341.61200       1.8936829     0.017005328
       339.00001       289.75917       98922.775       14495.301       5.6812500     -0.77275000     -0.95375010       341.93600       1.8672066     0.025412946
       344.00003       289.90393       98914.217       14711.663       4.2702500      -1.2005000     0.098750000       342.13900       1.8644584     0.020074542
       349.00000       289.93878       98915.829       14844.892       4.8067500     -0.91125010     -0.37125000       342.24800       1.9233519     0.010120009
       354.00001       289.91425       98918.833       14998.081       4.3550000      -2.0637500     -0.53675000       341.66700       1.9133631     0.011176640
       359.00002       289.90219       98912.561       15072.016       5.8130000      -2.2465000      0.34825000       342.08400       1.9029864     0.011148706
       364.00000       289.80137       98903.139       15096.600       4.4550000      -2.9782500     -0.21775000       341.97900       1.8913715     0.015340531
       369.00001       289.77358       98905.315       15082.322       3.5362500     0.041000000      0.32625000       342.61300       1.8990627     0.013285110
       375.00002       289.79999       98906.304       14987.137       5.2692500     -0.42625000      0.23475000       341.89500       1.9272223     0.011713657
       380.00003       289.79999       98901.373       14915.236       3.1827500      -2.0247500      0.39275000       342.45700       1.9040915     0.021066139
       385.00000       289.78114       98906.330       14785.651       5.2342500     -0.62300000     -0.68750010       341.32200       1.8889859     0.016074469
       390.00002       289.81899       98907.431       14739.745       3.9662500      0.35800000      0.70875000       342.48500       1.9195601     0.017675556
       395.00003       289.88332       98893.672       14716.336       4.7360000    -0.030500000     0.028750000       341.98200       1.9275118    0.0092489760
       400.00000       289.94232       98892.132       14713.072       5.8252500      -2.1855000    -0.063750010       341.95400       1.9206349     0.010729332
       405.00002       290.06283       98905.711       14776.651       6.1355000     -0.15575000     -0.34150000       341.59600       1.9240047     0.010477641
       410.00003       290.08690       98909.016       14771.086       4.6952500      -3.0827500      0.37400000       342.39600       1.8482590     0.016731000
       415.00000       290.03060       98902.834       14722.715       1.9802500     -0.70025000      0.95175000       342.71700       1.8901103     0.020586544
       420.00002       290.07790       98907.440       14748.973       5.4440000       1.0560000     -0.49425000       342.19600       1.8916165     0.013324023
       425.00003       290.11671       98922.671       14777.773       5.8187500      0.83600000     -0.18700000       342.25900       1.8823367     0.012615920
       430.00000       290.20182       98922.309       14831.987       4.2627500     -0.65375000      0.65675000       342.48500       1.8274394     0.018061984
       435.00001       290.38947       98914.505       14935.817       4.7157500      0.52325000     0.085750010       341.58900       1.9129117     0.017043207
       440.00003       290.48209       98916.358       15051.834       6.4370000     -0.88225010     -0.30050000       341.60600       1.9751684    0.0091469140
       445.00000       290.54170       98917.592       15154.351       5.9012500     -0.30925000     -0.18975000       342.13200       1.9151095     0.015713145
       450.00001       290.60321       98910.711       15326.579       4.2650000      0.57525000     -0.59575000       341.86900       1.8767639     0.014310052
       455.00003       290.64094       98903.465       15603.663       6.2655000      -2.5672500     -0.19125000       341.52800       1.9362183    0.0089195182
       461.00003       290.71539       98905.804       15835.116       5.0385000     -0.65100000     -0.46125000       342.18700       1.8403556     0.018218697
       466.00001       290.75625       98903.478       15953.154       2.7575000      0.45525000     -0.61400000       342.03200       1.9367078    0.0096976103
       471.00002       290.78481       98904.833       16004.055       2.8282500     -0.34350000     0.051500000       343.08600       1.9339373     0.013779294
       476.00003       290.79312       98923.745       15960.086       3.2572500      -1.0677500      0.58350000       343.15700       1.9659052    0.0088455459
       481.00001       290.84468       98924.001       15940.062       4.2155000      -1.2840000      0.19125000       341.91100       1.9330275    0.0093971882
       486.00002       290.89987       98907.988       15866.564       3.2895000      -1.1260000    -0.035750000       342.49400       1.9610922    0.0078500595
       491.00003       290.97069       98923.879       15842.491       3.1345000      -1.0227500    -0.076750000       342.43200       1.9360276     0.011987681
       496.00001       291.01380       98923.615       15818.679       3.8982500      -1.5090000    -0.042250000       343.15600       1.9433612    0.0097501697
       501.00002       291.03008       98904.664       15833.803       4.4280000      0.44825000     -0.28750000       342.11200       1.9427114    0.0089546858
       506.00003       291.01250       98903.351       15803.275       2.4932500     -0.29725000     0.060500000       343.42700       1.9326155     0.013123446
       511.00000       290.96986       98907.246       15755.682       3.6162500      -2.2235000     -0.34875000       342.90600       1.9186591    0.0098192986
       516.00002       290.91287       98903.973       15684.391       4.0490000     -0.87275000     0.097250010       343.09400       1.8901508     0.010495983
       521.00003       290.83130       98903.144       15585.838       3.1555000      -1.2422500      0.60800000       343.31200       1.9472266    0.0086791917
       526.00000       290.68905       98916.533       15438.069       3.1012500     -0.33950000    -0.057000000       343.50400       1.9482744    0.0089719434
       531.00002       290.63106       98921.166       15331.610       3.3307500      -1.0575000      0.10125000       343.17000       1.9158084    0.0086586706
       536.00003       290.59991       98913.389       15229.815       2.5747500      -2.1687500      0.60050000       344.00900       1.9352098    0.0088901339
       541.00000       290.52430       98925.810       15040.940       4.4580000      -2.3335000      0.82850000       342.78400       1.8711135    0.0099828006
       546.00002       290.49233       98932.331       14947.777       3.3885000      -1.2510000      0.41425000       343.00200       1.9103257    0.0099934091
       552.00002       290.43868       98930.306       14858.325       4.6105000     -0.36225000    -0.088750000       342.62200       1.8812944     0.011321087
       557.00004       290.43230       98930.288       14840.582       3.0512500     -0.72850000    -0.013250000       343.85800       1.9272572    0.0094945576
       562.00001       290.59738       98937.488       14999.551       5.4255000      -2.1435000      0.90225010       342.73100       1.9373579    0.0087280781
       567.00002       290.57896       98931.732       15040.764       5.4647500      -2.8250000     -0.45275000       341.94000       1.9510930    0.0096136133
       572.00004       290.41973       98906.457       15053.178       4.4125000     -0.98925010     0.093250010       342.12700       1.9131209    0.0088522150
       577.00001       290.33825       98902.226       15036.010       3.8520000     -0.10825000      0.13100000       342.18000       1.8785537     0.011861909
       582.00002       290.17571       98909.480       14958.235       5.5377500      -2.6327500      0.16250000       342.14000       1.8451502     0.013182133
       587.00003       290.05864       98904.535       14863.500       3.4312500      -1.2565000      0.53375000       342.32000       1.8777848    0.0094291337
       592.00001       290.03145       98901.322       14733.867       3.9837500      -1.9435000      0.38150000       341.80300       1.8497234     0.013763782
       597.00002       289.99171       98906.300       14619.365       3.5440000      0.38450000      0.70250000       343.31000       1.9118496    0.0084222649
       602.00003       289.89091       98905.072       14414.324       2.6402500       1.2242500       1.3945000       343.15300       1.9106251    0.0080561703
