MIRICO/SHELL project - Processed LDS file generated on
Wed Jul 26 00:12:06 2017
Time stamp for record start
05/12/2017  13:23: 0.0001
Nb of points in the record
         440
Beam position index
       6.0000000
Beam angle (degrees)
       13.594000
Open Path length (m)
       58.300000
****************** Temporal data record ************************
Elapsedtime_sec Temp_K Press_Pa Humidity_ppmv WindX_m/s WindY_m/s WindZ_m/s Speedofsound_m/s CH4vmr_ppmv CH4vmrerror_ppmv  
      0.00000000       288.95487       98906.292       13790.714       3.9052500      -1.8842500       1.1360000       341.66400       1.9900677     0.020022010
       4.9999729       288.93000       98905.274       13779.355       4.0835000      -1.1687500      0.58625000       341.80400       1.9943989     0.016190549
       9.9999860       288.97532       98904.194       13793.500       3.9195000     -0.42350000      0.79275010       341.66500       2.0091919     0.027311957
       14.999999       288.99407       98905.142       13807.405       5.3057500      -1.7075000      0.35800000       341.48700       1.9444727     0.014771218
       19.999972       289.02512       98906.090       13841.565       5.4817500      -4.0090000     -0.16400000       341.41300       1.9018784     0.015183739
       24.999985       289.11244       98904.459       13927.189       4.6130000      -1.7237500       1.4557500       341.75900       2.0103657     0.015529393
       29.999998       289.12950       98905.566       13980.813       3.6510000      -3.3552500    -0.050750000       341.83100       1.9790735     0.023681209
       34.999971       289.08815       98911.053       14004.471       4.0332500      -1.2620000      0.57425000       342.00700       1.9571206     0.015168206
       39.999984       289.19085       98910.189       14181.352       4.9547500      -1.6185000     -0.81350000       341.75700       1.9728199     0.018511852
       44.999997       289.21404       98910.129       14263.069       3.6125000      -1.9302500    -0.046250000       341.50200       1.9953170     0.014852046
       49.999970       289.18053       98911.890       14315.067       5.3870000      -1.5425000      0.14600000       341.73300       1.9223240     0.017409696
       54.999983       289.20046       98911.047       14357.722       3.9447500      -2.0540000     -0.42050000       341.52500       2.0011096     0.022426041
       60.999991       289.15909       98905.320       14287.699       6.4275000      -1.4507500      0.29300000       341.55200       2.0501848     0.020826452
       65.999964       289.18374       98904.373       14270.637       6.8567500     -0.12375000     -0.27525000       341.34400       2.0283647     0.017275709
       70.999977       289.34679       98906.123       14295.590       4.7530000     0.034500000      0.10950000       341.95800       1.9360941     0.017931277
       75.999990       289.42423       98905.154       14306.539       4.1687500      -1.3102500       1.5932500       342.06300       2.0375519     0.016323826
       80.999963       289.50755       98904.477       14325.519       7.2360010      0.13150000    -0.059500000       341.39900       2.0226636     0.023484545
       85.999976       289.52289       98905.522       14333.862       5.6302500     -0.80325000    -0.028750000       341.67500       2.0064447     0.018557382
       90.999989       289.43065       98908.945       14357.534       5.0592500      -1.8010000      0.63700000       342.10200       1.9934967     0.014262229
       95.999962       289.39013       98905.718       14339.906       5.7492500     -0.76050000     -0.18250000       341.63700       2.0497579     0.018786064
       100.99998       289.30496       98892.005       14280.350       5.8075000     -0.79400000     -0.80125000       341.79600       2.0602386     0.017763459
       105.99999       289.27890       98893.486       14236.810       6.2967500     -0.67975000     0.093000000       342.04100       1.9503303     0.015826430
       111.00000       289.33356       98907.352       14154.312       6.5255000     -0.99475000     -0.34425000       341.39800       1.9897262     0.021816074
       115.99997       289.35355       98906.180       14107.932       7.2520000       1.3800000      0.45675000       342.43800       2.0800644     0.024167881
       120.99999       289.36221       98901.292       14082.099       6.0982500     -0.44825000     -0.17750000       341.32900       1.9839876     0.024591611
       126.00000       289.40405       98906.426       14075.732       2.0910000     -0.80500010       1.4075000       342.63300       2.0163863     0.019999622
       130.99997       289.45527       98909.351       14095.219       4.5922500      -1.0267500      0.23500000       342.33900       2.0920116     0.021909246
       135.99999       289.50670       98904.363       14117.521       7.3252500      -2.1382500     -0.87975000       341.39000       1.9988549     0.017343218
       141.00000       289.62965       98901.451       14151.643       5.9362500      -3.1027500     -0.82950000       341.36100       1.9760062     0.023515947
       145.99997       289.67521       98906.450       14201.573       7.3200000      -2.9037500     -0.11425000       341.23500       2.0207553     0.028793515
       151.99998       289.64388       98908.352       14297.735       9.5820010     -0.87150000      0.35850000       341.77700       1.9952244     0.014275679
       156.99999       289.65368       98903.415       14345.367       7.3970000      -2.2492500     -0.22200000       341.28800       1.8796608     0.014412168
       161.99997       289.62932       98902.738       14390.974       3.8552500      0.62425010       1.1210000       342.93700       2.0292198     0.019053895
       166.99998       289.64726       98907.827       14431.559       6.9880000      -2.4530000     -0.16175000       341.08600       1.9355700     0.017342930
       171.99999       289.71976       98908.509       14421.857       3.6622500      -2.1037500      0.90275000       342.59700       2.0542818     0.040425962
       176.99997       289.77020       98903.453       14464.323       6.0477500      -1.4320000       1.0102500       342.30600       2.0384751     0.025834667
       181.99998       289.80784       98904.595       14557.605       6.1467500      -3.9472500      0.28975000       342.15500       1.9799134     0.023480179
       186.99999       289.87155       98906.851       14614.342       5.7090000      -1.5602500      0.14925000       341.84200       1.9691904     0.015136208
       191.99996       289.95821       98895.441       14653.962       5.7080000      -3.3550000      0.24025000       341.60900       1.9288635     0.018974448
       196.99998       290.02754       98891.961       14727.023       4.5445000      -2.0165000     -0.90975000       341.82800       1.8454126     0.025105744
       201.99999       290.14106       98903.883       14817.161       4.5110000      -1.7312500     -0.37050000       342.30300       1.9588269     0.025638605
       206.99996       290.17926       98908.167       14876.792       7.2752500      -3.8490000     -0.69750010       341.93900       1.9781343     0.020365327
       211.99998       290.16926       98905.888       14973.934       5.5242500      -1.6757500      0.68725000       342.77000       1.9238437     0.018717307
       216.99999       290.15153       98904.862       15012.064       4.3615000     -0.53475000      0.48825000       343.08200       1.9304854     0.017463814
       221.99996       290.06621       98905.772       14979.787       6.7992500      -1.1282500     -0.58525000       342.10800       1.9457407     0.014816949
       226.99998       290.02981       98905.338       14965.088       4.1282500      0.12825000      0.43100000       342.92500       1.9254406     0.016256717
       231.99999       290.00437       98899.448       14939.459       4.3080000      -2.5582500     -0.71575000       341.35300       1.8820410     0.014752519
       237.00000       289.98826       98899.188       14910.721       3.1545000      -3.0042500      0.15375000       342.78000       1.8691877     0.016334059
       242.99997       290.00000       98905.614       14856.770       6.1837500      -3.0067500      0.29550000       342.17500       1.9195026     0.017195371
       247.99998       289.99989       98905.970       14832.493       6.4990000      -3.1492500     0.023000000       341.47300       1.9158748     0.011464097
       253.00000       290.00073       98902.761       14797.571       4.3850000      -2.8685000      0.20675000       342.44700       1.9994057     0.015531367
       257.99997       290.00102       98907.103       14805.939       5.4722500      -3.5062500      0.27650000       341.79600       1.8991916     0.016000970
       262.99998       290.02222       98918.439       14881.607       7.1660000      -1.2895000    -0.091000010       342.06600       1.9388981     0.017230107
       267.99999       289.98967       98914.913       14871.758       6.7780000     -0.90600000     -0.53750000       341.66200       1.8673572     0.014044267
       272.99997       289.92560       98902.987       14827.311       6.2157500      -1.7377500     -0.28500000       342.10700       1.9127460     0.012217980
       277.99998       289.86928       98905.104       14817.748       5.7302500      -1.8555000     -0.27775000       342.06000       1.8701542     0.015977575
       282.99999       289.77066       98907.292       14762.619       3.2872500     -0.35975000       1.0780000       342.93000       1.8888025     0.014271912
       287.99997       289.70743       98902.359       14755.303       6.5360000     -0.88950000    -0.043250000       341.89500       1.8853419     0.013066711
       292.99998       289.68270       98903.645       14858.953       5.8292500      -2.1425000     -0.58900000       342.49100       1.9397884     0.012298950
       297.99999       289.61590       98908.630       14817.776       5.4870000     -0.25500000     -0.18975000       342.16800       1.9850106     0.013929489
       302.99997       289.51698       98905.344       14697.484       6.3445000      -2.1050000     -0.28925000       341.23900       1.9027560     0.015365966
       307.99998       289.46302       98903.566       14613.757       5.2822500     -0.83400010    -0.083750000       341.92800       1.9601797     0.012958189
       312.99999       289.37849       98916.068       14454.296       5.6742500      0.28550000     -0.63350000       341.36600       2.0115755     0.011821928
       317.99996       289.38312       98918.610       14376.143       7.4922500   -0.0055000000     -0.40325000       341.73900       2.0079967     0.012449243
       322.99998       289.46261       98902.576       14324.503       7.1117500      -1.8932500     -0.71075000       342.03400       2.0875852     0.015995809
       327.99999       289.53485       98903.772       14341.315       4.9627500      -1.0535000      0.56350000       342.33500       1.9506543    0.0094631577
       334.00000       289.67973       98922.671       14412.250       4.9312500      -1.3695000    -0.038750000       341.87800       2.0402698     0.012627380
       338.99997       289.77904       98922.309       14521.050       4.8340000     -0.89875010     -0.87725000       342.00400       2.0677155     0.023054530
       343.99998       289.91489       98914.443       14739.399       4.0967500     -0.12625000      0.48825000       342.41900       2.0034461     0.011891513
       349.00000       289.93976       98916.296       14869.862       5.6285000      -1.8770000      0.12200000       342.13800       1.9148516     0.017950179
       353.99997       289.91384       98917.780       15016.580       4.0862500      -2.4800000    -0.049500000       342.22000       1.9136504     0.015560313
       358.99998       289.89677       98911.004       15081.223       5.9560000      -3.1282500     -0.29750000       341.31700       1.9436010     0.017349289
       364.00000       289.79377       98903.363       15097.181       4.4127500      -3.4242500     -0.45225000       341.72900       1.9878266     0.011846706
       368.99997       289.77107       98906.067       15074.323       2.7492500      -1.9977500     -0.19375000       342.28100       1.9045899     0.014638181
       373.99998       289.79999       98906.304       14987.137       3.8655000      -1.6557500      0.12550000       342.59600       1.9555730     0.011863709
       379.00000       289.79999       98901.373       14915.236       4.0967500     -0.51375000     -0.85875000       342.12500       1.9631510     0.018545905
       383.99997       289.78114       98906.330       14785.651       4.7160000      -1.2147500     -0.39950000       341.48200       1.7735456     0.020758136
       388.99998       289.81899       98907.431       14739.745       6.6407500       1.0585000     0.071250010       341.25400       1.6938582     0.026000893
       394.00000       289.88332       98893.672       14716.336       4.4950000      -1.3180000    -0.095000010       342.68700       1.9766830     0.011339324
       398.99997       289.94232       98892.132       14713.072       6.3135000     -0.37500000      0.24375000       341.66800       1.9778283     0.016520710
       403.99998       290.06283       98905.711       14776.651       5.9045000     -0.61175000     -0.45125000       341.45800       1.9598359     0.010540000
       408.99999       290.08690       98909.016       14771.086       5.5452500      -3.0142500     -0.50325000       342.81100       1.9238070     0.012548758
       413.99997       290.03060       98902.834       14722.715       2.6940000      -1.2725000       1.1640000       343.04100       1.9139855     0.016956951
       418.99998       290.07790       98907.440       14748.973       4.0300000      0.51675000      0.88750000       342.85300       1.8867869     0.014520369
       424.99999       290.13078       98922.992       14786.534       5.4697500       1.7055000      0.22150000       341.81000       1.9361563     0.010613903
       430.00000       290.22327       98921.647       14845.960       3.7742500     -0.54150000   -0.0060000000       342.16100       2.0012094     0.012402617
       434.99997       290.40995       98914.779       14957.544       4.9512500      0.20450000     -0.30200000       342.17900       1.9289207     0.012265651
       439.99999       290.49768       98916.874       15077.261       5.5900000     -0.77200000     -0.42325000       341.84300       1.8945583     0.015222963
       445.00000       290.55501       98916.418       15185.295       6.5002500      0.68175010     -0.13200000       342.01600       1.9966398     0.011389703
       449.99997       290.60057       98903.155       15454.146       4.6710000    -0.089000000      0.20075000       341.80800       2.0192485     0.011855707
       454.99999       290.65099       98903.806       15638.029       5.7795000      -1.9097500    -0.090750000       341.30800       1.8967914     0.013501669
       460.00000       290.71539       98905.804       15835.116       3.7547500      0.63875000    -0.052000000       342.17100       2.0002832     0.010461120
       464.99997       290.75625       98903.478       15953.154       3.9160000      0.31225000     -0.60800000       342.24100       1.9389570     0.011030721
       469.99999       290.78481       98904.833       16004.055       2.0612500    -0.051500000     -0.13975000       343.08800       1.8989976     0.012858687
       475.00000       290.79312       98923.745       15960.086       3.0307500      0.57775000      0.77650000       342.82100       1.9223167    0.0089613300
       479.99997       290.84468       98924.001       15940.062       4.7207500     -0.73500000     -0.11200000       341.86200       1.9068973    0.0099661086
       484.99998       290.89987       98907.988       15866.564       3.5635000     -0.54100000    -0.073250000       342.76500       1.8999188     0.010030077
       490.00000       290.97069       98923.879       15842.491       2.5020000     -0.61650000     -0.34475000       342.61100       1.9271597    0.0086126215
       494.99997       291.01380       98923.615       15818.679       3.2937500      -1.4532500      0.15125000       343.14200       1.8443860     0.015923117
       499.99998       291.03008       98904.664       15833.803       4.0245000      0.21925000     -0.38150000       342.16600       1.8749938     0.012561064
       505.00000       291.01250       98903.351       15803.275       2.3345000      -1.1235000     -0.17625000       343.41400       1.9187732     0.011868240
       510.99996       290.96043       98906.396       15743.623       4.3422500      -2.5022500      0.52375000       343.03300       1.7610980     0.021481791
       515.99998       290.89852       98903.612       15666.848       3.7645000      -1.3385000      0.38400000       343.26200       1.8388358     0.013820966
       520.99999       290.75305       98910.977       15525.974       2.8690000     -0.38275000      0.52650000       342.09400       1.8843982     0.010064478
       525.99996       290.67549       98917.666       15416.478       3.7300000    -0.054750000     0.029000000       343.15700       1.8982580    0.0093078200
       530.99998       290.64843       98913.458       15325.871       3.4937500      -1.4795000      0.46150000       343.25300       1.9099668     0.010425177
       535.99999       290.58778       98913.747       15204.771       3.3160000     -0.49550000      0.93150000       342.32200       1.8750495     0.013819595
       540.99996       290.51685       98927.418       15019.086       4.5997500      -2.2120000      0.47925000       342.42100       1.9027622     0.012585607
       545.99998       290.48752       98933.180       14933.960       2.4712500     -0.90250000      0.49250000       343.32000       1.8270860     0.014476064
       550.99999       290.43868       98930.306       14858.325       4.4085000     -0.47375000     -0.10175000       342.63800       1.9189385    0.0094059066
       556.00000       290.43230       98930.288       14840.582       3.2812500    -0.019000000      0.36350000       344.37100       1.8880994    0.0088087292
       560.99997       290.59738       98937.488       14999.551       5.2130000      -1.8605000      0.10325000       342.67900       1.9278740     0.011077389
       565.99999       290.57896       98931.732       15040.764       4.1915000      -2.7410000      0.64525000       342.30200       1.8241834     0.011863294
       571.00000       290.41973       98906.457       15053.178       3.9385000     -0.23800000     -0.31875000       342.12900       1.8608074     0.010684461
       575.99997       290.33825       98902.226       15036.010       4.4540000      0.13025000     -0.74200000       341.79500       1.9097031     0.010284286
       580.99999       290.17571       98909.480       14958.235       5.4490000      -2.0397500     -0.26375000       341.31000       1.8919678    0.0098123591
       586.00000       290.05864       98904.535       14863.500       3.1362500      0.50575000      0.68625000       343.13200       1.7971381     0.015017150
       590.99997       290.03145       98901.322       14733.867       4.4432500     -0.80050000      0.38050000       342.16000       1.8904719     0.010620779
       595.99999       289.99171       98906.300       14619.365       4.6422500      0.88075010      0.18700000       342.31600       1.7998606     0.016812157
       601.99999       289.88392       98904.454       14393.505       2.9007500      0.80125000      0.11950000       342.94300       1.8239342     0.011634337
