MIRICO/SHELL project - Processed LDS file generated on
Wed Jul 26 15:18:16 2017
Time stamp for record start
05/12/2017  13:23: 0.0001
Nb of points in the record
         440
Beam position index
       7.0000000
Beam angle (degrees)
       19.274000
Open Path length (m)
       33.730000
****************** Temporal data record ************************
Elapsedtime_sec Temp_K Press_Pa Humidity_ppmv WindX_m/s WindY_m/s WindZ_m/s Speedofsound_m/s CH4vmr_ppmv CH4vmrerror_ppmv  
      0.00000000       288.95487       98906.292       13790.714       4.7190000      -3.1785000     -0.74950000       341.61200       2.0973712     0.017700472
       4.9999729       288.93000       98905.274       13779.355       4.9495000     -0.75650010     -0.37075000       341.51400       2.0589745     0.021179001
       9.9999860       288.97532       98904.194       13793.500       4.2815000      0.89950010      0.70950000       341.84100       2.1102441     0.035005497
       14.999999       288.99407       98905.142       13807.405       4.5425000     -0.74950000      0.15950000       341.47100       2.1561452     0.024415012
       19.999972       289.02512       98906.090       13841.565       5.6195000      -2.7267500      0.50500000       341.85800       2.2073971     0.023239282
       25.999980       289.11786       98904.578       13938.190       3.7662500      -1.3572500     -0.48450000       341.63200       2.3167170     0.035205164
       30.999993       289.07187       98909.397       13949.036       3.6980000      -4.1562500      0.47875000       341.58300       2.1063673     0.020726040
       35.999966       289.09473       98911.343       14021.592       6.2337500     -0.93650010      0.41450000       341.31600       2.1063002     0.031621019
       40.999979       289.19755       98910.177       14200.386       4.8412500      -1.1402500       1.2582500       341.63200       2.1727884     0.029880702
       45.999992       289.21558       98910.118       14275.358       4.8657500      -2.3990000      0.25600000       341.80500       2.2060617     0.027629083
       50.999965       289.18451       98911.819       14326.557       4.9320000      -1.2040000     -0.10575000       341.74700       2.2583919     0.036913548
       55.999978       289.20445       98910.732       14361.808       3.9030000      -2.1517500     -0.74125000       341.62500       2.1421813     0.033329492
       60.999991       289.15909       98905.320       14287.699       7.1122500      -1.9885000      0.21275000       341.64600       2.0638465     0.015006189
       65.999964       289.18374       98904.373       14270.637       6.7150000      -1.6692500      -1.2722500       341.38700       2.0743870     0.017859507
       70.999977       289.34679       98906.123       14295.590       4.2100000     -0.32775000      0.60025000       341.64000       2.2407422     0.032926052
       75.999990       289.42423       98905.154       14306.539       4.1977500       1.0050000      0.97525010       341.81500       2.1578690     0.030948016
       80.999963       289.50755       98904.477       14325.519       5.1642500     -0.16700000      0.86250000       341.71600       1.9935770     0.012598326
       85.999976       289.52289       98905.522       14333.862       4.5720000      -2.0447500       1.1252500       342.36000       1.9761213     0.014053807
       90.999989       289.43065       98908.945       14357.534       5.6407500      -1.8022500      0.20200000       341.83400       1.8550457     0.013998154
       95.999962       289.39013       98905.718       14339.906       5.9642500     -0.37775000     -0.69275000       341.68800       2.1195596     0.020563129
       100.99998       289.30496       98892.005       14280.350       6.0030000      -2.2212500      0.41175000       341.98800       2.1075589     0.027682764
       105.99999       289.27890       98893.486       14236.810       6.7512500      -1.6827500     -0.22150000       341.28600       2.1888451     0.021323663
       112.00000       289.33753       98907.310       14143.497       6.2275000      -1.0385000     -0.46400000       341.46100       1.8956575     0.014475121
       116.99997       289.35758       98905.658       14100.968       6.9480000      0.84075000       1.3000000       342.64300       1.8563861     0.016281065
       121.99998       289.36957       98902.317       14079.341       6.5432500      -2.5557500     -0.77075000       341.73100       2.1013647     0.026326561
       127.00000       289.41393       98907.454       14076.687       4.4575000      0.65550010       1.8100000       342.32900       2.1906267     0.026067395
       131.99997       289.46461       98908.359       14098.786       5.0087500      -2.7025000      0.25825000       342.23700       2.0574740     0.030843603
       136.99998       289.51841       98903.357       14123.323       7.5040000      -1.3392500      0.87050000       342.30900       1.9967105     0.015817782
       141.99999       289.64171       98902.452       14160.665       5.9217500      -2.5227500     -0.87825010       341.68900       2.0268814     0.015873830
       146.99997       289.67989       98907.448       14213.006       8.2945000      -2.6350000     -0.37575000       341.41200       2.3344970     0.035580821
       151.99998       289.64388       98908.352       14297.735       8.1677500     -0.35675000     -0.55700000       341.74100       2.3741578     0.056401947
       156.99999       289.65368       98903.415       14345.367       8.6950010      -3.2167500      0.41600000       342.01400       1.9632497     0.016446669
       161.99997       289.62932       98902.738       14390.974       7.9325000     -0.18425000      -1.2645000       341.88300       2.0400495     0.014903658
       166.99998       289.64726       98907.827       14431.559       6.7647500      -2.4355000     -0.17600000       341.20400       2.3880718     0.033518673
       171.99999       289.71976       98908.509       14421.857       7.0205000     -0.71275000      0.86175010       342.00200       2.0321417     0.020055857
       176.99997       289.77020       98903.453       14464.323       4.7627500      -2.8465000      0.94475010       342.43000       1.8740994     0.024041811
       181.99998       289.80784       98904.595       14557.605       5.9772500     -0.33525000     -0.90400000       342.52800       1.9335044     0.015366180
       186.99999       289.87155       98906.851       14614.342       6.0780000      -2.1862500     -0.80575000       341.58400       2.0009093     0.022695574
       191.99996       289.95821       98895.441       14653.962       5.9692500      -3.0315000     0.036500000       341.55400       1.9216521     0.016443344
       196.99998       290.02754       98891.961       14727.023       5.0775000      -1.7757500     0.012250000       342.06100       2.0188476     0.019621637
       202.99999       290.15170       98904.940       14829.418       4.6595000      -4.4905000     -0.38750000       342.12000       2.0322867     0.014564897
       208.00000       290.18239       98908.724       14888.214       6.0115000      -3.4385000     0.028750000       341.91300       1.8889530     0.020623392
       212.99997       290.16772       98905.682       14984.510       4.3177500      -3.3260000      0.58850000       342.63000       1.9788523     0.017193689
       217.99998       290.14498       98904.659       15015.259       5.1047500      0.13425000      0.71300010       341.19600       2.0538668     0.016503391
       223.00000       290.05789       98905.783       14977.467       4.6317500     -0.33175000      0.88050000       342.04300       2.0550798     0.022271057
       227.99997       290.02410       98905.105       14961.224       3.7240000      0.92250000      0.32725000       342.65800       1.9852675     0.036865976
       232.99998       290.00016       98899.199       14934.165       4.5115000      -1.8135000      0.28925000       342.47100       1.9399448     0.013518563
       238.00000       289.98651       98899.431       14904.293       2.9837500      -2.7252500      0.25925000       342.91800       2.0945803     0.022666881
       242.99997       290.00000       98905.614       14856.770       6.4675000      -1.5907500     0.028250000       341.64700       2.0647573     0.028317404
       247.99998       289.99989       98905.970       14832.493       6.1457510      -1.7110000      0.56150000       341.57900       1.9009005     0.026953508
       253.00000       290.00073       98902.761       14797.571       5.2000000      -1.0727500      0.96775010       342.73400       2.2858100     0.043967817
       257.99997       290.00102       98907.103       14805.939       6.8557510      -1.3550000     -0.35925000       342.24100       2.1420665     0.023305111
       262.99998       290.02222       98918.439       14881.607       6.9042500      -1.7812500      0.14375000       342.41900       1.9484443     0.016242442
       267.99999       289.98967       98914.913       14871.758       9.0605000     -0.11575000      0.10675000       342.34300       2.1625615     0.014906067
       272.99997       289.92560       98902.987       14827.311       5.7040000      -1.7757500      0.62100010       342.47300       1.7918820     0.023619599
       277.99998       289.86928       98905.104       14817.748       5.3110000      -2.1157500      0.56500000       342.63600       2.0366316     0.023313685
       282.99999       289.77066       98907.292       14762.619       3.6290000      -1.5922500    0.0067500000       342.85400       1.8766070     0.017957039
       287.99997       289.70743       98902.359       14755.303       7.2595010     -0.84000000     -0.51375000       341.26100       1.9961014     0.013482326
       293.99997       289.67039       98904.651       14855.063       5.3172500      -1.0595000      0.19550000       341.40000       2.0157996     0.014023922
       298.99999       289.60096       98909.613       14803.048       4.4107500      0.22575000     0.016750000       342.04100       1.8919469     0.013400453
       304.00000       289.50519       98904.791       14681.925       7.9155000      -1.5787500     -0.65050010       341.65600       1.9279371     0.013023065
       308.99997       289.45372       98903.507       14595.235       3.6890000     -0.60200010       1.5540000       342.27300       1.8940003     0.013177853
       313.99999       289.37537       98916.974       14435.947       5.4075000      -2.1047500      0.73675000       341.65400       1.9118432     0.012532195
       319.00000       289.39011       98918.521       14364.558       7.3417500      0.65075000     -0.80850010       341.40000       2.0599619     0.022480919
       323.99997       289.47509       98902.323       14324.041       5.9185000      -1.7017500    -0.080500010       341.78100       1.9300069     0.013326004
       328.99999       289.55225       98904.749       14350.431       5.9612500      -1.3595000     -0.12825000       341.81500       2.1810680     0.015710734
       334.00000       289.67973       98922.671       14412.250       6.0205000     -0.34600000      0.12300000       341.73300       1.8003512     0.015913944
       338.99997       289.77904       98922.309       14521.050       4.4720000     -0.36550000     -0.23650000       341.91200       2.0989271     0.018262356
       343.99998       289.91489       98914.443       14739.399       3.8030000      -1.3465000      0.75100000       342.21600       2.0332747     0.013959332
       349.00000       289.93976       98916.296       14869.862       5.0110000      -2.2720000      0.39450000       342.09600       1.9230816     0.015372607
       353.99997       289.91384       98917.780       15016.580       4.7715000      -2.7705000      0.22900000       341.93100       2.0850411     0.030031079
       358.99998       289.89677       98911.004       15081.223       5.6245000      -1.3712500     -0.16300000       341.74400       1.9515411     0.018286756
       364.00000       289.79377       98903.363       15097.181       4.8857500      -2.2020000    -0.057500000       342.21800       1.9052636     0.014383038
       368.99997       289.77107       98906.067       15074.323       4.5042500    -0.060500000      0.26050000       342.31300       2.0647645     0.036052065
       373.99998       289.79999       98906.304       14987.137       3.3285000     -0.39600000      0.65675000       342.60900       2.0575408     0.020571627
       379.00000       289.79999       98901.373       14915.236       4.2172500     -0.87925000      0.25875000       341.92700       1.9647571     0.013563515
       384.99996       289.78669       98906.761       14774.198       5.0135000      0.52800000      -1.2437500       341.70000       1.9992013     0.025754134
       389.99998       289.82959       98907.334       14733.964       5.5902500      0.46900000     -0.66650000       341.59000       1.9557905     0.015478552
       394.99999       289.89412       98892.965       14713.622       4.4797500      -1.4942500    -0.036250000       342.84100       2.1052204     0.028273479
       399.99996       290.01600       98901.266       14768.060       5.6650000      -1.0460000      0.19400000       342.03700       1.9875136     0.020067052
       404.99998       290.07071       98906.572       14776.983       6.8815000     -0.39725000     -0.34575000       341.88200       2.1005347     0.022542229
       409.99999       290.01046       98901.810       14718.080       4.1215000     -0.77500000     -0.69050000       342.87800       2.0068750     0.018092336
       414.99996       290.03809       98903.460       14726.146       3.9012500     -0.53625010      0.63975000       341.87200       1.9053056     0.013032454
       419.99997       290.07516       98919.420       14753.103       4.9370000      0.17900000      0.71900000       342.24900       1.8904100     0.013991136
       424.99999       290.13078       98922.992       14786.534       6.0010000      0.54475000     -0.23725000       342.63400       1.8609422     0.017080384
       430.00000       290.22327       98921.647       14845.960       3.5165000     -0.21975000      0.27775000       342.37500       2.1274307     0.023202148
       434.99997       290.40995       98914.779       14957.544       4.3390000   -0.0072500000     0.077250000       342.08600       2.0372126     0.027318682
       439.99999       290.49768       98916.874       15077.261       4.4597500       1.0265000       1.8797500       342.15800       1.9642934     0.024227652
       445.00000       290.55501       98916.418       15185.295       6.0500000      0.20325000    -0.072000000       341.70100       1.9381390     0.015671393
       449.99997       290.60057       98903.155       15454.146       4.7820000     -0.53500000      0.29850000       341.77200       1.9968139     0.010445937
       454.99999       290.65099       98903.806       15638.029       5.6355000      -3.5057500     -0.85675000       341.98300       2.0341489     0.025707337
       460.00000       290.71539       98905.804       15835.116       4.7245000      0.78000000     -0.20975000       342.13900       1.9161793     0.013912843
       464.99997       290.75625       98903.478       15953.154       3.2665000      0.14075000     -0.75700000       342.55000       2.0484860     0.015801904
       469.99999       290.78481       98904.833       16004.055       2.6310000     -0.24100000      0.74375000       343.05900       1.8138201     0.025950990
       475.99999       290.80241       98924.305       15958.207       2.5335000     -0.88950000      0.22300000       344.00500       1.8532722     0.024633325
       480.99997       290.86781       98909.554       15893.219       4.4180000     -0.62600000     -0.10050000       342.23400       2.0564585     0.021033595
       485.99998       290.90789       98908.099       15860.593       3.4245000     -0.36600000    -0.086500000       342.17100       2.0566675     0.024698514
       490.99999       290.98134       98924.336       15837.334       2.4245000     0.064250000      0.54325000       342.73800       2.0629721     0.026157973
       495.99997       291.01938       98922.797       15814.521       3.3480000     -0.59000000     -0.46300000       343.29500       1.9752141     0.035104343
       500.99998       291.02854       98904.106       15829.527       2.4192500      -1.7555000    -0.065250000       342.84200       2.0895804     0.039865277
       505.99999       291.00602       98903.532       15794.431       1.5137500     -0.94475010      0.44250000       343.75400       1.7511817     0.022939071
       510.99996       290.96043       98906.396       15743.623       3.9782500     -0.86850010     0.014750000       343.01400       1.9556563     0.026247648
       515.99998       290.89852       98903.612       15666.848       3.9925000     -0.37925000     0.031000000       343.09600       1.9595048     0.030144834
       520.99999       290.75305       98910.977       15525.974       2.1375000    -0.097500000      0.14475000       343.02100       1.5436694     0.032941363
       525.99996       290.67549       98917.666       15416.478       4.1567500      -1.1292500      0.55350000       343.14100       1.9369910     0.012845426
       530.99998       290.64843       98913.458       15325.871       3.3942500     -0.74450000      0.13575000       343.25500       2.1357694     0.040069496
       535.99999       290.58778       98913.747       15204.771       4.2672500     -0.64175000      0.44925000       342.37000       2.0628891     0.037869028
       540.99996       290.51685       98927.418       15019.086       5.0430000      -2.3220000     -0.24475000       342.49300       1.9541540     0.024126859
       545.99998       290.48752       98933.180       14933.960       4.2582500      -1.2222500      0.10650000       342.97800       1.9968705     0.022481677
       550.99999       290.43868       98930.306       14858.325       4.4732500      -1.4585000     -0.57150000       342.52100       2.0070177     0.016336290
       556.00000       290.43230       98930.288       14840.582       3.5392500     -0.64825000      0.16250000       343.93000       1.8520801     0.010389763
       560.99997       290.59738       98937.488       14999.551       4.9982500      -2.9912500      0.17600000       342.30500       1.8632824     0.014035051
       566.99998       290.56617       98929.819       15044.782       4.7485000      -1.3432500     -0.51250000       342.29600       2.2723487     0.027366339
       572.00000       290.40444       98905.110       15052.866       3.6470000     -0.95450000      0.63600000       342.13100       2.0698331     0.031859341
       576.99997       290.32046       98902.131       15027.911       5.5575000      0.45800000      0.12075000       342.18300       1.9433521     0.032277870
       581.99998       290.14924       98908.499       14940.969       5.7307500      -1.7000000     -0.55825000       341.64100       1.9832313     0.035761962
       586.99999       290.03982       98903.534       14842.058       4.2115000     -0.59000000      0.85125010       342.60800       1.9334672     0.017598287
       591.99997       290.02351       98902.318       14711.521       3.4130000      0.14775000      0.24350000       342.28800       1.8671525     0.012597846
       596.99998       289.98376       98907.296       14595.635       3.9762500      0.96800010     -0.17700000       341.29500       1.9832897     0.021142856
       601.99999       289.88392       98904.454       14393.505       2.7625000      0.43200000      0.21575000       342.86300       1.9635918     0.024430116
