MIRICO/SHELL project - Processed LDS file generated on
Wed Jul 26 17:11:41 2017
Time stamp for record start
05/12/2017  14:02: 9.0000
Nb of points in the record
         546
Beam position index
       1.0000000
Beam angle (degrees)
      -18.455000
Open Path length (m)
       34.890000
****************** Temporal data record ************************
Elapsedtime_sec Temp_K Press_Pa Humidity_ppmv WindX_m/s WindY_m/s WindZ_m/s Speedofsound_m/s CH4vmr_ppmv CH4vmrerror_ppmv  
      0.00000000       288.64239       98933.039       13836.647       4.5360000      -2.4955000     0.050750000       341.42300       2.1278542     0.013756850
       5.0000131       288.64782       98945.727       13852.338       4.0245000     -0.77150010      0.70550000       341.49500       2.0943393     0.011878717
       10.000026       288.65760       98952.114       13878.393       4.6177500      -1.3402500     -0.37650000       341.32900       2.0651712     0.016847959
       14.999999       288.64232       98944.678       13883.664       5.3827500      -1.5957500      0.60450010       341.50300       2.0732439     0.012669496
       20.000012       288.65146       98943.548       13910.485       3.4205000      -1.2357500      0.11825000       341.50700       2.0565455     0.013226217
       25.000025       288.69416       98954.653       13967.814       2.2812500      0.11150000      0.34575000       341.49300       1.9943377     0.014743907
       29.999998       288.72449       98948.416       14011.276       3.8825000      -2.4800000     -0.17325000       341.30100       2.0471342     0.013097926
       35.000011       288.75591       98925.566       14056.913       2.7492500      -2.3597500    -0.041500000       341.39300       2.0789536     0.012671444
       40.000024       288.75736       98917.328       14070.731       5.4612500      -1.6802500     -0.18400000       341.43100       2.3341064     0.027301310
       44.999997       288.75659       98907.393       14077.829       4.4432500      -2.0615000    -0.024000000       341.25800       1.9303470     0.023684411
       50.000010       288.74770       98907.698       14078.793       5.6077500      -1.2752500     0.037750000       341.32000       2.0723593     0.015714294
       55.000024       288.69771       98917.031       14040.881       4.4322500      -2.2432500      0.11875000       341.25400       2.0476479     0.012921155
       59.999996       288.68668       98926.661       14038.531       3.1795000      -1.4015000      0.61050000       341.46700       2.1188253     0.016456298
       65.000010       288.70914       98946.268       14065.268       3.6157500      -1.4327500      0.25275000       341.46700       2.0029787     0.018091086
       71.000017       288.68462       98951.025       14053.251       2.4850000     -0.77225010     -0.37175000       341.40600       2.0770059     0.013195154
       75.999990       288.64428       98952.524       14024.379       1.5282500     -0.71825000      0.59175000       341.61200       2.0231637     0.014506613
       81.000003       288.66026       98944.617       14061.544       3.0105000     -0.75050000     0.016250000       341.41600       2.0677200     0.011533320
       86.000016       288.65035       98935.709       14063.562       2.4340000     -0.90000000     -0.17025000       341.60000       2.0339243     0.015480912
       90.999989       288.65512       98921.383       14074.765       2.5752500     -0.81225000      0.38550000       341.67900       2.0871796     0.015142923
       96.000002       288.65625       98914.278       14080.898       2.6892500      -1.8975000     -0.30675000       341.63200       2.0365305     0.012841310
       101.00002       288.64504       98909.617       14070.867       4.5320000     -0.84450010     0.024750000       341.44600       2.1311866     0.013183214
       106.00003       288.59385       98901.391       14011.942       3.7930000     -0.41150000     -0.39600000       341.53600       2.0772850     0.012915427
       111.00000       288.58539       98907.308       14005.749       5.8220010      -2.3345000    -0.075500000       341.24800       2.0802707     0.013964336
       116.00001       288.60530       98925.950       14033.523       3.1962500     -0.94550000      0.21150000       341.44500       2.0513777     0.014720634
       121.00003       288.56935       98935.877       13993.867       5.4655000      -2.2257500      -1.0120000       341.29300       2.0473239     0.012746521
       126.00000       288.54922       98942.368       13962.765       3.9662500       1.2142500      0.37825000       341.60600       1.9484518     0.015194625
       131.00001       288.49992       98944.848       13883.269       3.0770000      0.44200000      0.77375000       341.65600       2.0275819     0.015885510
       136.00003       288.48783       98942.179       13847.375       5.4485000      -1.1110000     -0.59725000       341.21700       2.0161734     0.014387753
       141.00000       288.54524       98931.388       13872.115       7.4702500     -0.34350000      0.10175000       341.40500       2.0646081     0.014730011
       146.00001       288.55656       98925.486       13864.438       4.2350000     -0.97925010      0.26650000       341.45500       2.0466935     0.013271473
       151.00003       288.55559       98919.569       13852.375       3.2412500     -0.87250010      0.32450000       341.43900       1.9415207     0.027170534
       156.00000       288.55760       98908.729       13850.616       4.5195000      -1.0135000     -0.66400000       341.36400       2.0408422     0.015215307
       162.00001       288.50998       98907.305       13805.087       5.9337500      0.73625000     -0.12675000       341.22500       2.0060448     0.015290864
       167.00002       288.49089       98909.475       13791.743       6.2015000     -0.74000000     -0.84125010       341.16100       2.1362001     0.013271246
       171.99999       288.52805       98915.662       13845.482       4.0525000     -0.33975000     -0.22150000       341.32900       2.0432161     0.011695415
       177.00001       288.50591       98920.781       13826.127       5.3697500      -2.2160000      0.62125000       341.34400       2.1266972     0.015195984
       182.00002       288.43179       98931.868       13763.547       3.4115000     -0.40600000     0.099500010       341.34900       2.0417791     0.012574623
       186.99999       288.39206       98937.578       13713.067       4.5915000     -0.37575000      0.39350000       341.42000       2.0553214     0.013192154
       192.00000       288.31919       98940.794       13597.625       4.4497500      -1.0445000     -0.17625000       341.32000       2.0139325     0.014732763
       197.00002       288.28204       98941.494       13532.728       4.3445000     -0.37425000      0.10875000       341.26400       1.9717650     0.016610025
       201.99999       288.30037       98941.315       13515.198       4.1217500      -1.5332500     -0.13300000       341.34900       2.0011917     0.014160795
       207.00000       288.30064       98935.997       13486.027       3.7850000      0.13850000      0.26525000       341.35100       2.0739855     0.017653380
       212.00002       288.30005       98919.413       13465.104       3.6755000      0.78900000      0.14425000       341.42600       2.1203792     0.017735736
       216.99999       288.30002       98912.576       13446.418       5.8462500      -1.2847500     -0.53400000       341.33100       2.0579428     0.011910311
       222.00000       288.28595       98903.595       13412.938       3.9565000     0.074000000      0.38725000       341.32600       1.9859421     0.019735624
       227.00002       288.29730       98902.270       13409.601       5.9415000    -0.035000000     -0.72225000       341.18600       1.9953737     0.013751006
       232.00003       288.33396       98911.822       13433.670       5.0145000      -1.6460000     -0.49475000       341.16700       1.9788487     0.013432614
       237.00000       288.35372       98920.949       13450.345       5.4875000      -1.5022500     -0.44675000       341.25400       2.0456048     0.014480456
       242.00002       288.39032       98938.147       13484.151       4.2272500      -1.9785000     -0.15400000       341.34300       1.9815438     0.018376183
       247.00003       288.40902       98947.822       13514.603       4.6137500     -0.59875010     -0.16650000       341.36500       2.0026809     0.016918919
       253.00000       288.40009       98961.296       13533.389       5.6090000      -1.1680000     -0.67525010       341.20100       2.0227003     0.016273779
       258.00001       288.40009       98963.536       13570.848       3.4937500     -0.53325000       1.3935000       341.53600       2.0024905     0.011961765
       263.00002       288.38721       98956.474       13628.209       4.5630000      -1.6837500       1.1472500       341.41200       2.0913538     0.011763332
       267.99999       288.40075       98948.387       13681.042       3.6842500      -2.5137500     -0.52850000       341.43600       2.0600008     0.010894837
       273.00001       288.45084       98931.034       13779.532       4.3675000      -1.3465000     -0.32925000       341.30700       2.0308345     0.012083772
       278.00002       288.45708       98920.444       13803.193       4.7880000      -3.0975000      0.38225000       341.28900       2.0319336     0.012012094
       282.99999       288.45793       98903.916       13781.423       4.3117500      -4.1180000     -0.43075000       341.11300       2.1497928     0.011818554
       288.00001       288.45400       98901.240       13767.776       4.9722500      -1.2500000      0.49150000       341.30200       2.0444097     0.014251482
       293.00002       288.39267       98911.057       13689.436       5.6295000      -1.5722500     -0.28250000       341.15000       2.0203025     0.014799786
       297.99999       288.39031       98916.865       13666.576       4.8200000     -0.86800000      0.56000000       341.22900       2.0992884     0.016792622
       303.00001       288.43844       98930.197       13693.457       2.8687500      -1.9375000       1.0410000       341.26900       2.0181589     0.014172805
       308.00002       288.45848       98939.851       13688.707       2.2630000      -1.0077500     -0.20550000       341.46000       2.0803535     0.011379132
       312.99999       288.50861       98947.459       13694.401       5.0682500      -2.8270000     -0.81150000       341.13000       2.0069975     0.014082287
       318.00001       288.51111       98953.043       13676.357       2.5455000     -0.75650010     -0.34325000       341.31300       2.0189684     0.014998205
       323.00002       288.44882       98963.123       13594.006       3.7212500     -0.85575000    -0.057500000       341.25900       1.9629883     0.014647148
       327.99999       288.44242       98962.267       13591.902       4.0152500      -1.8805000      0.14350000       341.33800       1.9728976     0.016390108
       333.00000       288.45555       98951.842       13636.736       5.6215000      -2.6352500     -0.87250010       341.27000       2.0640753     0.011984524
       338.00002       288.44553       98943.058       13654.687       5.3487500     -0.79100000     -0.56750010       341.32800       2.0618282     0.011706932
       344.00003       288.44581       98922.383       13707.967       4.3130000     -0.74400000     -0.36200000       341.18800       2.0494970     0.014846660
       349.00000       288.45600       98914.259       13756.427       3.4800000     -0.50225000    -0.011750000       341.41400       2.0848763     0.012326370
       354.00001       288.43265       98908.112       13764.761       4.9907500     -0.63425000     -0.32775000       341.50000       2.0182145     0.019281802
       359.00002       288.45503       98908.515       13830.811       4.1807500     -0.63525000      0.24425000       341.42300       2.0556514     0.015556497
       364.00000       288.55266       98915.184       13985.232       3.7070000      -1.3122500     -0.35725000       341.45700       2.0575633     0.013143590
       369.00001       288.57002       98923.940       14046.319       3.8612500      -1.0160000     -0.97500000       341.30300       1.9625262     0.021172955
       374.00002       288.55851       98942.467       14086.738       3.5647500      -1.5465000    0.0067500000       341.33400       2.0193767     0.017687733
       379.00000       288.55212       98951.195       14110.861       4.6500000      -2.1045000     0.010750000       341.41200       2.0420212     0.014741609
       384.00001       288.50147       98960.050       14071.934       4.3795000      -1.8100000    -0.066500000       341.20900       2.0243973     0.012575093
       389.00002       288.48794       98964.260       14073.056       4.1912500     -0.84850000     0.032750000       341.54500       2.0420892     0.016939494
       394.00000       288.51079       98963.534       14116.892       3.3647500      -2.1165000      0.81450000       341.43600       2.0061328     0.016270967
       399.00001       288.49447       98958.651       14085.308       3.5610000      -2.0687500     -0.38150000       341.47400       2.0339521     0.011771737
       404.00002       288.45786       98950.128       14017.490       2.8100000      -1.1880000      0.43925000       341.55200       1.9910687     0.012172088
       408.99999       288.43795       98941.051       13953.933       2.4737500     -0.76825000     -0.15225000       341.58400       2.0577124     0.015537055
       414.00001       288.40069       98923.109       13824.485       3.9762500      -1.5650000     -0.10875000       341.21200       2.0444309     0.013853612
       419.00002       288.38696       98913.347       13762.955       3.2010000     -0.19650000      0.30750000       341.50700       1.9973022     0.014676613
       423.99999       288.38793       98902.756       13721.557       3.6167500      -1.8667500      0.14300000       341.39900       2.0584946     0.012848317
       429.00001       288.40425       98902.886       13714.601       2.9997500      -1.7310000     -0.12975000       341.45100       2.0674510     0.013262169
       435.00001       288.45455       98913.036       13760.670       4.0682500      -1.3177500     -0.53675000       341.30300       2.0316289     0.013851453
       440.00003       288.45565       98919.825       13773.820       2.8555000      -1.1907500    -0.079000000       341.38500       2.0060024     0.013098443
       445.00000       288.45646       98935.848       13805.641       3.3082500     -0.77475010    -0.056000000       341.51100       1.9916230     0.012992798
       450.00001       288.44794       98941.271       13823.791       3.5985000     -0.73475000     -0.43950000       341.46000       1.9708358     0.012200053
       455.00003       288.38847       98938.942       13810.587       3.2000000      -1.4510000     -0.11900000       341.59800       1.9286292     0.022804999
       460.00000       288.39613       98943.821       13842.238       3.1165000      -1.0637500    -0.027750000       341.19800       2.0480487     0.014741356
       465.00001       288.44564       98951.386       13906.986       4.0927500     -0.38325000     0.039500000       341.33200       1.9985099     0.012010159
       470.00003       288.46601       98951.682       13942.153       3.8527500     -0.39625000     -0.68175010       341.37700       1.9918002     0.013306639
       475.00000       288.50288       98954.180       13984.572       3.1102500     -0.76300000     -0.34625000       341.35700       2.0334368     0.011261776
       480.00001       288.51437       98946.791       14010.720       3.8727500    -0.067500000     -0.15275000       341.24800       2.0673865     0.012431230
       485.00002       288.50027       98926.421       14015.719       2.6107500     -0.78375010    -0.056000000       341.45600       2.0382018     0.016567805
       490.00000       288.50045       98916.327       14026.634       3.7590000     -0.31025000      0.51300000       341.57900       2.1301821     0.010593484
       495.00001       288.50033       98903.888       14038.809       3.7397500      0.97525010      0.21450000       341.38400       2.0738186     0.015095194
       500.00002       288.50044       98900.464       14043.428       2.5562500     -0.37275000     -0.22400000       341.50800       2.1715340     0.011786604
       505.00000       288.50007       98904.560       14042.263       2.7177500     -0.87250010      0.36875000       341.59900       2.4873542     0.011164718
       510.00001       288.50014       98905.400       14032.149       2.3475000     -0.73950000     -0.18225000       341.48800       2.3523800     0.013808812
       515.00002       288.49072       98908.013       14000.369       2.0965000      0.41775000    -0.069750000       341.75600       2.2916647     0.016063604
       520.00000       288.50970       98914.909       14012.577       4.5777500     -0.54075000     -0.47450000       341.24900       2.0843037     0.010728949
       526.00000       288.54988       98925.083       14036.012       3.1562500      -1.1795000    -0.038000000       341.53900       2.0676699     0.013634306
       531.00002       288.58498       98932.905       14098.757       2.5695000     -0.12950000    -0.040250000       341.72100       2.1031387     0.015539563
       535.99999       288.60661       98941.153       14146.319       4.1285000      -1.1112500    -0.044000000       341.59100       2.0550928     0.013882532
       541.00000       288.59986       98949.454       14171.862       4.0910000      -2.7335000    -0.021500000       341.16100       2.0716964     0.010683143
       546.00002       288.59972       98951.723       14210.782       3.8212500      -1.4757500     -0.85975000       341.15100       2.1027424     0.012221537
       551.00003       288.59953       98951.535       14254.499       3.7365000      -1.4577500      0.24975000       341.31500       2.0536876     0.011229150
       556.00000       288.60740       98952.489       14318.752       3.9502500      -1.5837500     -0.32700000       341.45800       2.0355401     0.012024339
       561.00001       288.58616       98948.044       14316.214       3.5680000      -1.7205000     -0.23375000       341.27300       2.0054066     0.012658388
       566.00003       288.53796       98935.152       14286.319       4.2767500      -1.6092500    -0.065500010       341.31600       1.9812301     0.012163282
       571.00000       288.59053       98927.036       14298.810       2.1845000      0.23000000      0.13350000       341.81600       2.0111981     0.018432013
       576.00001       288.60078       98919.956       14281.814       1.9535000      -1.0290000      0.26200000       341.60600       1.9614156     0.016874963
       581.00003       288.64061       98901.312       14286.280       1.8630000      -1.0142500     -0.11925000       341.66000       2.1495316     0.011974894
       586.00000       288.66260       98900.525       14284.426       2.2792500      -1.9257500     -0.40150000       341.67500       1.9719330     0.017535418
       591.00001       288.61492       98919.820       14221.773       1.8077500     -0.33975000     -0.14675000       341.51200       2.0375408     0.012954369
       596.00003       288.59376       98929.591       14189.223       2.7502500      0.11350000    -0.063750010       341.47200       1.9860721     0.017878018
       601.00000       288.58489       98940.584       14174.621       3.5800000     -0.33075000     0.099000010       341.65200       2.0398258     0.010878116
