MIRICO/SHELL project - Processed LDS file generated on
Wed Jul 26 16:20:25 2017
Time stamp for record start
05/12/2017  14:02: 9.0000
Nb of points in the record
         546
Beam position index
       2.0000000
Beam angle (degrees)
      -8.6380000
Open Path length (m)
       64.850000
****************** Temporal data record ************************
Elapsedtime_sec Temp_K Press_Pa Humidity_ppmv WindX_m/s WindY_m/s WindZ_m/s Speedofsound_m/s CH4vmr_ppmv CH4vmrerror_ppmv  
      0.00000000       288.64239       98933.039       13836.647       4.7887500      -2.3730000     -0.19725000       341.42800       2.8218853      0.94548365
       5.0000131       288.64782       98945.727       13852.338       5.5490000      -1.6660000     -0.44100000       341.28300       4.7730671      0.71070758
       10.000026       288.65760       98952.114       13878.393       3.8670000     -0.84125010      0.66550000       341.55000       5.3026594       1.0634460
       14.999999       288.64232       98944.678       13883.664       5.0305000      -1.7102500     -0.38350000       341.34500       2.2479080       1.1679806
       20.000012       288.65146       98943.548       13910.485       3.2735000      -1.8932500      0.36800000       341.51200       4.1593248       1.4121309
       25.000025       288.69416       98954.653       13967.814       4.5510000      -2.9250000     -0.97425000       341.45300       7.9567812      0.95030844
       29.999998       288.72449       98948.416       14011.276       3.5097500     -0.50000000    -0.050750000       341.33500       4.1343626      0.75633991
       36.000006       288.75722       98923.707       14060.839       3.0370000     -0.82150010      0.50250000       341.48500       5.2475853       1.3768272
       41.000019       288.75486       98911.569       14068.322       4.2807500      -1.2412500     0.025750000       341.48600       6.3960815       1.3031417
       45.999992       288.75580       98906.963       14078.993       4.4510000      -3.2152500     0.064000000       341.34100       6.9249423      0.93793117
       51.000005       288.71543       98911.997       14050.488       5.4572500      -1.6095000     -0.45700000       341.26200       6.2237325       1.3122211
       56.000018       288.69452       98918.660       14039.553       4.4622500      -2.4960000     -0.50175010       341.35200       9.6964414       1.0964357
       60.999991       288.68596       98929.032       14039.348       3.6555000      -1.6445000      0.13650000       341.44300       4.5309518      0.85564721
       66.000004       288.70633       98947.559       14064.354       4.4965000      -1.3455000     0.063000000       341.30900       3.7237980      0.77054730
       71.000017       288.68462       98951.025       14053.251       3.0485000      -1.2637500     -0.81350000       341.45400       6.2449452      0.88259358
       75.999990       288.64428       98952.524       14024.379       3.9457500      -2.0785000      0.77700000       341.52600       2.6825374      0.91839540
       81.000003       288.66026       98944.617       14061.544       3.6560000     -0.20875000     0.064750000       341.51700       5.2798735       1.0767582
       86.000016       288.65035       98935.709       14063.562       2.9955000     -0.68325000      0.13900000       341.57700       2.1524026      0.80533776
       90.999989       288.65512       98921.383       14074.765       1.9747500      -1.0675000      0.73550000       341.74900       6.7650847      0.84667703
       96.000002       288.65625       98914.278       14080.898       3.6952500     -0.38250000      0.57200000       341.55200       5.9570538       1.0868321
       101.00002       288.64504       98909.617       14070.867       2.5850000      -1.5110000      0.26250000       341.51400       4.4223679       1.5599801
       106.00003       288.59385       98901.391       14011.942       5.1472500      -2.4297500   -0.0060000000       341.38200       3.7079282       1.0288412
       111.00000       288.58539       98907.308       14005.749       5.0642500      -2.5270000     -0.46175000       341.20600       1.8591641      0.93498691
       116.00001       288.60530       98925.950       14033.523       3.6455000     -0.78775010      0.49200000       341.43700       6.9113279       1.0969787
       121.00003       288.56935       98935.877       13993.867       6.0765000      -2.1465000      0.31025000       341.40900      -3.1490149       1.1179910
       127.00000       288.54523       98943.211       13955.574       5.4795000      0.41275000     0.042250000       341.18600       4.5521892       1.2474034
       132.00001       288.49554       98944.612       13874.093       3.1585000      0.30325000      0.71125000       341.63300       3.2018897       1.0141816
       137.00002       288.48836       98941.198       13843.185       6.0800000     -0.60675000      0.20475000       341.21300       14.070429       1.5013293
       141.99999       288.54848       98930.208       13870.932       6.2582500      -1.7130000     -0.34475000       341.32700       6.3438522      0.77180278
       147.00001       288.55735       98924.303       13862.375       5.2242500      -1.0485000     -0.24275000       341.38700       3.6115770      0.66661858
       152.00002       288.55748       98913.433       13855.637       4.2792500     -0.24625000      0.26800000       341.35700      -2.6214558      0.76727241
       156.99999       288.55635       98907.931       13848.602       5.1175000      -2.2160000     -0.85325000       341.18800       8.6638178       1.1178819
       162.00001       288.50998       98907.305       13805.087       5.1552500      -1.1020000      0.25050000       341.44300       1.7050513       1.1467615
       167.00002       288.49089       98909.475       13791.743       5.8392500     -0.78500000      -1.0757500       341.25300       9.2073567       1.2805783
       171.99999       288.52805       98915.662       13845.482       4.1037500     -0.54025000      0.27200000       341.35300       7.5902232       1.3073507
       177.00001       288.50591       98920.781       13826.127       5.3372500      -2.7552500     0.054250000       341.29400       4.5025512      0.99532858
       182.00002       288.43179       98931.868       13763.547       3.7635000      0.40975000      0.41825000       341.40800       4.6620073      0.89659573
       186.99999       288.39206       98937.578       13713.067       4.8135000      0.23600000     -0.76525000       341.27300       5.8401923      0.85685308
       192.00000       288.31919       98940.794       13597.625       4.3542500     0.048750000     -0.11725000       341.34900       3.9621334       1.1488967
       197.00002       288.28204       98941.494       13532.728       4.7795000     -0.12850000     0.059000000       341.36600       2.3876827      0.92399234
       201.99999       288.30037       98941.315       13515.198       4.6390000     -0.71875010      0.54525000       341.21500       5.2826821       1.1912793
       207.00000       288.30064       98935.997       13486.027       3.7952500      0.36900000      0.43125000       341.40200       4.0333623      0.97719831
       213.00001       288.30005       98917.835       13461.202       5.2027500       1.3875000     -0.61250000       341.15200       4.6273929       1.0209369
       218.00002       288.30000       98911.523       13442.927       5.1275000     -0.28500000     -0.69100000       341.35800       3.3666352      0.86125925
       223.00000       288.28723       98902.838       13410.952       3.3257500      -1.1330000      0.11950000       341.39100       8.0418035      0.82821125
       228.00001       288.30105       98902.743       13410.912       4.6510000       1.4795000    -0.038000000       341.31200    -0.062055857      0.85206145
       233.00002       288.33791       98913.452       13436.506       5.2297500     -0.59150000      -1.0222500       341.19200      0.25748042      0.94265455
       238.00000       288.35766       98923.068       13454.430       4.8990000      -1.5662500      0.15900000       341.25600       54.251088       4.4267611
       243.00001       288.39507       98940.276       13490.357       4.2630000      -2.0952500      0.31300000       341.37500       4.3575403       1.2712359
       248.00002       288.41125       98949.466       13520.517       3.6820000     -0.57375000     -0.48750000       341.35900       5.0292126       1.5001523
       253.00000       288.40009       98961.296       13533.389       4.7630000      -2.3317500     -0.28075000       341.37400       12.870128       2.6786420
       258.00001       288.40009       98963.536       13570.848       3.7457500     -0.36950000      0.43100000       341.39100       5.6114079      0.87776051
       263.00002       288.38721       98956.474       13628.209       5.1557500      -1.3270000     0.049500000       341.39300       3.3627362      0.98780166
       267.99999       288.40075       98948.387       13681.042       6.0835000      -1.4030000      0.18900000       341.24200       3.4506262      0.87977185
       273.00001       288.45084       98931.034       13779.532       4.8940000      -2.9035000      0.33725000       341.25200       9.0231556       1.1896140
       278.00002       288.45708       98920.444       13803.193       2.9482500      -2.2170000      0.78750000       341.32800       7.0757473       1.2329770
       282.99999       288.45793       98903.916       13781.423       5.2817500      -2.2442500      0.67150000       341.08800       4.9176867      0.97939451
       288.00001       288.45400       98901.240       13767.776       5.8745000      -2.4587500     -0.85650000       341.11700       8.9137232       1.2523517
       293.00002       288.39267       98911.057       13689.436       4.7622500      -1.1955000     -0.46700000       341.20800       7.1084229       1.2236814
       297.99999       288.39031       98916.865       13666.576       4.2330000      -2.2677500      0.38750000       341.22100       9.1738883       1.4035855
       304.00000       288.44247       98932.233       13692.862       3.0002500      -1.3475000      0.37100000       341.42000       8.1748861       1.0389326
       309.00001       288.46246       98941.624       13687.225       3.0302500      -1.4945000      0.50450000       341.43600      -1.1503080       1.0892472
       314.00003       288.51107       98948.672       13691.993       4.5757500      -2.0967500      0.29275000       341.22900       7.5245138       1.4528489
       319.00000       288.50867       98954.015       13670.951       2.8997500     -0.45150000      0.58225000       341.53200       1.5384387      0.88519522
       324.00001       288.44656       98963.445       13591.226       3.9000000     -0.39775000     -0.20175000       341.32600       4.4605545       1.3141185
       329.00003       288.44261       98961.356       13595.020       3.8812500      -1.4137500    -0.047000000       341.36000       4.7834774       2.0073615
       334.00000       288.45353       98950.296       13639.709       4.5180000      -1.9597500     -0.26175000       341.36400      -5.1592928       1.0520079
       339.00001       288.44356       98940.984       13659.202       5.1837500      -1.7227500     -0.12050000       341.33200       7.8202468       1.0771968
       344.00003       288.44581       98922.383       13707.967       4.8360000      -1.2437500     -0.16475000       341.19500       6.6490094      0.94980993
       349.00000       288.45600       98914.259       13756.427       3.6172500     0.067000000     -0.17975000       341.40200      -1.0589814       1.0687311
       354.00001       288.43265       98908.112       13764.761       4.5397500      -1.0792500     -0.13625000       341.28700       6.0245188       1.0336629
       359.00002       288.45503       98908.515       13830.811       4.1875000      -1.0552500     -0.69575010       341.29000       5.9542887       1.2491279
       364.00000       288.55266       98915.184       13985.232       3.6405000     -0.80800000      0.70775000       341.39400       6.9409309      0.92084780
       369.00001       288.57002       98923.940       14046.319       3.8037500      -1.8822500     -0.28350000       341.31100      -1.7626832      0.54510197
       374.00002       288.55851       98942.467       14086.738       3.9815000     -0.71075000     0.089750010       341.26700       3.2858686      0.99638990
       379.00000       288.55212       98951.195       14110.861       3.6930000      -1.9872500    -0.018000000       341.45100      -1.4564190      0.95825769
       384.00001       288.50147       98960.050       14071.934       3.1505000      -1.9590000      0.30350000       341.27000       6.3870340      0.97823890
       389.00002       288.48794       98964.260       14073.056       4.0637500      -1.3022500     -0.22075000       341.23400       3.3456732      0.77956680
       394.99999       288.50853       98962.859       14113.099       3.0965000      -2.6510000      0.44800000       341.35900       5.9166007       1.1896539
       400.00000       288.48970       98957.222       14075.211       3.5907500      -2.2032500     -0.67775010       341.41300       1.2520119      0.90629871
       405.00002       288.45388       98948.508       14006.162       2.6660000     -0.87925000      0.34125000       341.56500       2.9840798       1.0601819
       410.00003       288.43397       98938.942       13939.148       2.6660000      -1.4397500      0.24325000       341.62600       10.245712      0.99728411
       415.00000       288.39695       98920.960       13810.247       3.7935000      -1.6660000     -0.22400000       341.25300       2.0689544       1.1315864
       420.00002       288.38569       98911.689       13753.539       4.1012500      -1.3582500   -0.0070000000       341.48600       5.4028451       1.2455495
       425.00003       288.39018       98902.279       13717.888       4.0842500      -1.8050000    -0.045500000       341.52000       2.7505930       1.1434028
       430.00000       288.40904       98903.667       13716.628       3.2640000     -0.96775010     -0.21100000       341.48000       8.2082664       1.6500322
       435.00001       288.45455       98913.036       13760.670       4.6425000     -0.46975000     -0.22500000       341.31700       7.3710505       1.0773711
       440.00003       288.45565       98919.825       13773.820       3.1170000     -0.55625000     -0.53675000       341.44500       5.6589741       1.1216717
       445.00000       288.45646       98935.848       13805.641       2.8597500     -0.12000000      0.14825000       341.65700       5.1711052       1.2213012
       450.00001       288.44794       98941.271       13823.791       3.3477500     -0.93725000    -0.062500000       341.45500       7.4284121       1.5640517
       455.00003       288.38847       98938.942       13810.587       2.9772500      -1.1235000     -0.16125000       341.59100       4.8086603      0.84371724
       460.00000       288.39613       98943.821       13842.238       2.9857500     -0.39725000    -0.071000000       341.50000       1.5466690       1.1005719
       465.00001       288.44564       98951.386       13906.986       3.7047500     -0.60700010      0.23300000       341.40700       5.3723356       1.0331093
       470.00003       288.46601       98951.682       13942.153       3.9515000      0.51975000     0.031500000       341.38600       7.6041744       1.2545365
       475.00000       288.50288       98954.180       13984.572       3.4737500     -0.61225000     -0.32200000       341.43400      0.27219809      0.96495793
       480.00001       288.51437       98946.791       14010.720       3.2497500     -0.20225000      0.35075000       341.41600       5.5181776       1.0644878
       486.00002       288.50030       98924.290       14018.107       4.8062500     -0.88000010      0.15225000       341.25000       3.7630957       1.1958055
       490.99999       288.50024       98910.177       14031.390       4.5012500      -1.0472500      0.32050000       341.55000      -7.3196352       2.7807018
       496.00001       288.50035       98902.809       14040.146       3.9050000     -0.48950000      0.21475000       341.33500       6.7513044       1.0257433
       501.00002       288.50006       98904.778       14045.444       2.6650000     -0.83650000      0.44825000       341.68300       5.0814666      0.88329944
       505.99999       288.50008       98904.629       14040.786       2.5145000     -0.47525000      0.21725000       341.63900       1.7446528       1.1783201
       511.00000       288.50016       98905.716       14029.307       2.1835000     -0.56400000      0.37525000       341.65600       1.9662011      0.94952104
       516.00002       288.49350       98909.188       14001.556       1.3785000      0.31575000     -0.14825000       341.69500       6.5211429       1.2341750
       520.99999       288.51502       98916.595       14016.902       4.4222500      -1.1417500     -0.71625010       341.30000       4.3103800      0.87554150
       526.00000       288.54988       98925.083       14036.012       2.5917500      -1.4725000     0.039500000       341.52900      -8.1549652       1.7471785
       531.00002       288.58498       98932.905       14098.757       2.8887500     -0.81675000     -0.57725000       341.41200      -7.0559594       1.0435498
       535.99999       288.60661       98941.153       14146.319       4.2242500      -1.5160000      0.11725000       341.35000       7.0376980       1.0440811
       541.00000       288.59986       98949.454       14171.862       3.3657500      -2.3527500     -0.16750000       341.18100       6.1434657       1.0226126
       546.00002       288.59972       98951.723       14210.782       3.4610000      -2.1125000     0.012250000       341.23200       5.3615310      0.88019643
       551.00003       288.59953       98951.535       14254.499       3.9285000      -1.6507500      0.11400000       341.29300       6.8905102       1.1723437
       556.00000       288.60740       98952.489       14318.752       3.0257500      -1.8422500      0.40875000       341.45900       3.1568054      0.92883860
       561.00001       288.58616       98948.044       14316.214       3.9247500      -2.8132500      0.87100010       341.56700       4.1567891       1.1021402
       566.00003       288.53796       98935.152       14286.319       3.6480000      -1.2400000     0.033500000       341.30900       4.7706350       1.2477331
       571.00000       288.59053       98927.036       14298.810       2.0022500      0.42825000      0.24500000       341.77600       1.9177382      0.96611656
       577.00001       288.60278       98918.550       14278.391       2.6487500     -0.46725000     -0.40250000       341.59200       4.8410090       1.0370294
       582.00002       288.64698       98900.367       14287.319       1.2527500     -0.82075010      0.12025000       341.80300       6.5941215       1.0422620
       586.99999       288.66405       98901.549       14281.943       2.9117500     -0.89625010    -0.053750000       341.60100       3.6190984       1.1820445
       592.00001       288.60971       98921.677       14213.823       1.9582500      -1.2825000     -0.89475010       341.51700       4.3617704       1.5586331
       597.00002       288.59101       98931.692       14184.869       3.3200000    -0.055500000     -0.15950000       341.58200       4.8557504      0.99869691
       601.99999       288.58599       98957.428       14181.353       4.1410000    -0.071000000      0.11550000       341.25000       7.3685642      0.99256679
