MIRICO/SHELL project - Processed LDS file generated on
Thu Jul 27 03:11:28 2017
Time stamp for record start
05/12/2017  14:02: 5.0001
Nb of points in the record
         547
Beam position index
       3.0000000
Beam angle (degrees)
     -0.96000000
Open Path length (m)
       44.550000
****************** Temporal data record ************************
Elapsedtime_sec Temp_K Press_Pa Humidity_ppmv WindX_m/s WindY_m/s WindZ_m/s Speedofsound_m/s CH4vmr_ppmv CH4vmrerror_ppmv  
      0.00000000       288.65043       98930.659       13826.618       3.2530000      -1.3672500     -0.20375000       341.66900       2.0009266     0.013170782
       4.9999729       288.63997       98937.958       13831.852       4.4745000      -1.5062500     -0.70875000       341.49600       1.9849268     0.020042795
       9.9999860       288.64978       98947.300       13857.509       4.5840000      -1.5402500     -0.50475000       341.39300       1.8792945     0.015151223
       14.999999       288.65954       98952.948       13883.664       3.9555000     -0.98150000      0.60525000       341.50000       1.9387302     0.020332752
       19.999972       288.64312       98944.348       13888.100       5.1322500      -2.2465000     -0.46325000       341.38900       1.9570342     0.024935650
       24.999985       288.65483       98943.479       13917.245       3.1487500      -1.4490000      0.19425000       341.52300       2.0875765     0.016637021
       29.999998       288.70023       98954.008       13976.595       4.0432500      -1.6082500     -0.46225000       341.50500       1.9251099     0.013231356
       34.999971       288.74550       98934.058       14035.407       2.8277500      0.33575000      0.36075000       341.51000       1.9869846     0.016912808
       39.999984       288.75722       98923.707       14060.839       3.8557500     -0.96650000     -0.53525000       341.47900       2.0265995     0.017343549
       44.999997       288.75486       98911.569       14068.322       3.4747500      -2.0855000     -0.38575000       341.30300       1.9924936     0.023116041
       49.999970       288.75580       98906.963       14078.993       4.8195000      -2.3795000     -0.94025000       341.43800       2.0829052     0.013059115
       54.999983       288.71543       98911.997       14050.488       4.9987500      -2.8132500     -0.73425000       341.47900       2.0095931     0.013229583
       59.999996       288.69452       98918.660       14039.553       4.8942500      -1.2612500      0.10600000       341.31300       1.8760131     0.012183803
       64.999969       288.68596       98929.032       14039.348       3.6582500      -1.5082500      0.61225000       341.49200       1.9693345     0.011327616
       69.999982       288.70633       98947.559       14064.354       4.2800000      -1.6890000     -0.18400000       341.34700       2.0264111     0.024025160
       74.999996       288.68462       98951.025       14053.251       3.4532500     -0.84800000      0.43025000       341.46800       2.0118204     0.014649999
       79.999968       288.64428       98952.524       14024.379       3.3772500      -2.6320000    -0.059000000       341.32700       1.9535429     0.014194017
       84.999982       288.66026       98944.617       14061.544       3.5797500     -0.20550000     -0.14225000       341.45900       2.1309873     0.014541311
       90.999989       288.64834       98933.783       14063.392       2.3532500     -0.87200000      0.49800000       341.62900       2.0903362     0.019553822
       96.000002       288.65634       98919.766       14077.284       2.5150000     -0.70325010    0.0065000000       341.57000       1.9361521     0.018625175
       100.99998       288.65500       98913.150       14080.184       2.8595000     -0.41750000      0.34225000       341.64100       1.9909347     0.021947226
       105.99999       288.60968       98902.128       14027.687       2.6355000      -1.7967500      0.47800000       341.54700       2.1777031     0.024582003
       111.00000       288.59116       98901.966       14009.505       4.9977500      -1.7860000     -0.95225010       341.39000       1.8983554     0.021395873
       115.99997       288.61356       98919.516       14043.523       3.6610000      -2.4455000     -0.26700000       341.37500       1.8912791     0.011305803
       120.99999       288.60198       98927.432       14029.214       4.1437500      -3.0397500     -0.31425000       341.41100       1.9515455     0.017418984
       126.00000       288.56530       98937.479       13988.295       5.6957500      -2.9320000     -0.71625010       341.32500       1.9236140     0.013040105
       130.99997       288.54523       98943.211       13955.574       5.1695000     -0.29425000     -0.66900000       341.21400       2.0277284     0.021475640
       135.99999       288.49554       98944.612       13874.093       4.7650000      0.22575000      0.18925000       341.58300       1.9974253     0.017945704
       141.00000       288.48836       98941.198       13843.185       6.7672510      -1.1692500     -0.21925000       341.18600       2.1016919     0.030871546
       145.99997       288.54848       98930.208       13870.932       5.7442500      -1.8182500     -0.14400000       341.30600       2.0630316     0.014886779
       150.99999       288.55735       98924.303       13862.375       4.6567500      -1.4260000     -0.23825000       341.32900       2.1481000     0.034854283
       156.00000       288.55748       98913.433       13855.637       3.7462500      -1.1977500      0.21550000       341.43400       2.0116113     0.015289982
       160.99997       288.55635       98907.931       13848.602       4.9335000      -2.4910000     -0.60650000       341.24600       2.0091849     0.013515581
       165.99998       288.50998       98907.305       13805.087       4.5495000     -0.55450000     -0.42325000       341.40900       2.0354010     0.035883391
       171.00000       288.49089       98909.475       13791.743       5.3640000      0.29350000      0.18475000       341.38900       1.9306913     0.015272963
       175.99997       288.52805       98915.662       13845.482       3.2227500      0.20550000      0.70075010       341.43900       1.8108328     0.013445100
       181.99998       288.49846       98921.950       13818.691       3.6957500      -1.0237500      0.79350010       341.33100       2.0683625     0.022085335
       186.99999       288.42385       98933.208       13754.656       4.0842500     0.057500000      0.79150000       341.34500       2.0200113     0.015754840
       192.00000       288.38410       98938.424       13701.167       5.1755000    -0.043000000      0.43125000       341.29200       1.9099636     0.011079754
       196.99998       288.30975       98941.137       13582.666       4.7085000    0.0012500000      0.10975000       341.47700       1.9661449     0.012967662
       201.99999       288.27762       98941.329       13522.707       3.5300000      -1.0620000      0.43525000       341.38200       2.0205168     0.021295189
       207.00000       288.30042       98940.550       13508.960       3.5467500      0.78650000       1.3282500       341.43300       1.8562638     0.010956364
       211.99998       288.30070       98934.485       13480.798       5.5905000     -0.76100000     -0.64500000       341.08000       2.1728600     0.019353843
       216.99999       288.30005       98917.835       13461.202       4.6250000       1.0125000      0.70675000       341.25400       1.9533485     0.011199015
       222.00000       288.30000       98911.523       13442.927       4.0012500      -2.6792500     -0.74475000       341.39300       2.1130367     0.024372302
       226.99998       288.28723       98902.838       13410.952       4.6847500     -0.73325000      0.19425000       341.38900       1.9947887     0.013937739
       231.99999       288.30105       98902.743       13410.912       3.8997500     -0.41650000     -0.57375000       341.30900       2.0203717     0.018802611
       237.00000       288.33791       98913.452       13436.506       4.8322500      -1.2120000      0.40350000       341.35900       2.1405427     0.027075522
       241.99997       288.35766       98923.068       13454.430       4.7590000      -1.9432500     -0.38000000       341.18000       1.9276663     0.013412705
       246.99999       288.39507       98940.276       13490.357       4.5702500      -1.9417500     -0.80975000       341.22300       2.0762780     0.017055496
       252.00000       288.41125       98949.466       13520.517       4.2050000     -0.63875000    -0.014500000       341.40500       2.0533893     0.021279087
       256.99997       288.40009       98961.296       13533.389       6.0215000      -2.2215000     0.044500000       341.16700       1.9075458     0.011536723
       261.99999       288.40009       98963.536       13570.848       4.9530000    -0.075750000      0.19275000       341.38000       1.8240514     0.019074130
       267.99999       288.38892       98955.153       13638.420       6.4830000      -2.2147500     -0.45500000       341.24100       1.9417892     0.012672330
       272.99997       288.40496       98946.324       13692.146       5.5825000      -2.1877500   -0.0022500000       341.27700       1.9035807     0.020450323
       277.99998       288.45307       98928.818       13786.934       3.5325000      -2.2370000      0.48900000       341.45400       2.0929067     0.027258522
       282.99999       288.45686       98918.473       13803.919       2.9462500      0.66075000      0.99775000       341.39100       2.1608051     0.035951352
       288.00001       288.45818       98902.777       13780.083       5.4495000      -3.2840000      0.21525000       341.26800       2.1522163     0.030646017
       292.99998       288.45166       98901.612       13762.963       5.4297500      -1.5170000     -0.15925000       341.07100       1.9855504     0.015178537
       297.99999       288.39020       98912.018       13683.103       4.9557500      -1.2822500      0.23025000       341.28800       1.9666727     0.012395671
       303.00001       288.39284       98918.327       13664.642       4.6050000     -0.90950010     -0.10750000       341.17700       1.9031965     0.021594277
       307.99998       288.44247       98932.233       13692.862       4.8077500      -2.3327500     -0.18000000       341.21000       1.9036437     0.017305632
       312.99999       288.46246       98941.624       13687.225       4.1070000     -0.74100010      0.60200010       341.39200       1.9725549     0.012599307
       318.00001       288.51107       98948.672       13691.993       4.9045000      -1.5977500     -0.52350000       341.19000       1.9976998     0.013312414
       322.99998       288.50867       98954.015       13670.951       3.5292500      -1.2035000      0.18525000       341.38900       1.8561767     0.015682419
       327.99999       288.44656       98963.445       13591.226       4.4395000     -0.32650000      0.40325000       341.41000       1.9800742     0.023575792
       333.00000       288.44261       98961.356       13595.020       3.6042500      -1.4157500      0.25925000       341.31900       2.0565098     0.018936927
       337.99998       288.45353       98950.296       13639.709       4.2095000      0.97700010     -0.27450000       341.35200       2.0483433     0.018916775
       342.99999       288.44356       98940.984       13659.202       4.2362500      -1.7825000     -0.82375000       341.31400       2.0529428     0.014959885
       348.00000       288.44581       98922.383       13707.967       4.4455000     -0.35800000      0.10675000       341.16300       2.0116502     0.018621127
       352.99998       288.45600       98914.259       13756.427       4.9547500     -0.63750000      -1.2760000       341.14900       2.0752131     0.025010981
       358.99998       288.43514       98907.788       13775.529       3.3405000      -3.3365000       1.0682500       341.21400       2.0212169     0.015677185
       364.00000       288.46249       98909.202       13847.697       4.7380000      -1.3395000     -0.66950010       341.31200       1.8388482     0.024110801
       368.99997       288.55810       98916.640       13999.636       2.7445000     -0.23925000      0.31425000       341.56400       1.8675325     0.015225021
       373.99998       288.57054       98926.135       14055.244       4.1767500      -2.1940000     0.035250000       341.44200       1.8975597     0.015650107
       379.00000       288.55827       98944.406       14093.565       3.7845000      -1.1130000      0.29100000       341.38300       2.0243109     0.014927973
       383.99997       288.54929       98952.651       14112.680       3.4130000      -1.6727500      0.10550000       341.42300       1.9335264     0.012968275
       388.99998       288.49775       98961.190       14071.554       3.0017500      -1.5652500      0.21275000       341.37100       1.9964030     0.017723365
       394.00000       288.48675       98964.653       14074.187       4.5005000      -1.9027500     -0.43625000       341.21000       2.1041048     0.019973111
       398.99997       288.50853       98962.859       14113.099       2.2310000      -1.2550000      0.53625010       341.38300       1.9990886     0.015734508
       403.99998       288.48970       98957.222       14075.211       3.2020000      -1.4487500     -0.33975000       341.49300       2.0107493     0.023512286
       408.99999       288.45388       98948.508       14006.162       1.6015000      -1.1730000      0.69775000       341.66500       1.9421720     0.010959539
       414.00001       288.43397       98938.942       13939.148       2.7260000      0.10900000      0.27075000       341.66800       2.0281529     0.019538894
       418.99998       288.39695       98920.960       13810.247       4.1327500      -1.6992500      0.12950000       341.53800       1.9155117     0.011530467
       423.99999       288.38569       98911.689       13753.539       4.6432500      -1.5300000     -0.24575000       341.40600       1.8716207     0.018450810
       429.00001       288.39018       98902.279       13717.888       3.0312500      -1.4055000      0.14650000       341.46400       1.8976318     0.012705446
       433.99998       288.40904       98903.667       13716.628       3.1207500     -0.92300000      0.13250000       341.47400       1.9585618     0.023476199
       438.99999       288.45455       98913.036       13760.670       3.7452500     -0.72600000     -0.27275000       341.39700       1.9912919     0.016343273
       444.00001       288.45565       98919.825       13773.820       3.4927500      0.69625000     -0.18100000       341.38000       2.1700347     0.027075047
       449.99997       288.45574       98937.239       13809.775       3.7190000     -0.26650000     0.024500000       341.39700       2.0017863     0.023202828
       454.99999       288.40013       98935.928       13797.951       4.8430000     -0.74500010      0.48575000       341.62800       1.9470240     0.010078161
       460.00000       288.38803       98939.819       13815.505       1.9277500      -2.8812500     -0.46550000       341.46000       1.7946215     0.014118651
       464.99997       288.40062       98944.945       13850.693       2.7602500     -0.13225000     0.010500000       341.58000       1.9707982     0.020901755
       469.99999       288.44968       98951.643       13914.310       3.2780000     -0.19525000     -0.32725000       341.39200       1.9349683     0.013343472
       475.00000       288.47013       98951.444       13948.750       3.7452500     -0.34800000     -0.49875000       341.52900       1.9035304    0.0094484692
       479.99997       288.50617       98953.200       13990.631       3.5910000      -1.5282500      0.31750000       341.45800       2.0321724     0.014422702
       484.99998       288.50017       98935.508       14005.137       2.7610000     -0.74450000     -0.35750000       341.43400       2.0309222     0.018569808
       490.00000       288.50030       98924.290       14018.107       4.4815000      -1.0947500     0.053500000       341.29300       2.0987975     0.017687427
       494.99997       288.50024       98910.177       14031.390       4.3015000     -0.42275000     -0.11000000       341.54400       2.1015092     0.012805784
       499.99998       288.50035       98902.809       14040.146       4.5230000     -0.39750000      0.14800000       341.31200       2.1503807     0.021887528
       505.00000       288.50006       98904.778       14045.444       2.2570000     -0.79600010      0.25950000       341.69400       2.6400622     0.023369650
       509.99997       288.50008       98904.629       14040.786       2.4460000      -1.2400000      0.27625000       341.56200       2.5944690     0.020616977
       514.99998       288.50016       98905.716       14029.307       1.6192500     -0.68750010      0.74800000       341.79200       2.1384671     0.019168890
       520.00000       288.49350       98909.188       14001.556       2.3295000    -0.048000000      0.29450000       341.66300       2.0401704     0.013744270
       524.99997       288.51502       98916.595       14016.902       4.5655000      -1.9122500     -0.52725010       341.35700       2.0715440     0.015809614
       529.99998       288.54988       98925.083       14036.012       2.7600000      -1.0440000      0.30350000       341.69800       2.0637943     0.010795684
       534.99999       288.58498       98932.905       14098.757       2.9942500     -0.51700000     -0.20725000       341.62500       2.0354800     0.018501941
       541.00000       288.60943       98942.647       14154.988       3.2212500      0.15625000      0.49700000       341.42100       1.9465401     0.010670612
       545.99998       288.59984       98950.104       14179.262       3.3910000      -1.2577500      0.77950000       341.51300       2.0122461     0.017261269
       550.99999       288.59969       98951.882       14219.141       4.6977500      -1.6645000      0.11050000       341.37300       2.0454008     0.020667820
       556.00000       288.61531       98953.284       14301.332       3.7607500      -1.8597500      0.15525000       341.35800       1.9097968     0.012086164
       560.99997       288.60416       98951.907       14320.405       2.5202500     -0.76800000      0.70625000       341.52500       2.0540098     0.017566619
       565.99999       288.53780       98941.606       14280.867       4.1910000      -2.2237500     0.017000000       341.23100       1.8505615     0.014052270
       571.00000       288.54052       98933.542       14287.970       3.5087500      -1.7675000      0.19025000       341.30300       1.9104151     0.017951257
       575.99997       288.59261       98925.613       14295.427       1.8345000     -0.20725000    0.0072500000       341.74100       1.9228352     0.017448111
       580.99999       288.60278       98918.550       14278.391       2.5785000     -0.30550000     -0.30425000       341.59900       1.8988928     0.015018037
       586.00000       288.64698       98900.367       14287.319       1.7120000     -0.68150000      0.21650000       341.82000       1.8713919     0.012516908
       590.99997       288.66405       98901.549       14281.943       2.3675000      -1.0987500     -0.34950000       341.49500       1.9810479     0.012480940
       595.99999       288.60971       98921.677       14213.823       1.2027500     -0.63875000      0.97300000       341.82400       1.9418364     0.019566508
       601.00000       288.59101       98931.692       14184.869       2.9405000      0.99350010     -0.33700000       341.66600       2.0060564     0.015534466
