MIRICO/SHELL project - Processed LDS file generated on
Thu Jul 27 04:26:23 2017
Time stamp for record start
05/12/2017  14:02: 5.0001
Nb of points in the record
         547
Beam position index
       4.0000000
Beam angle (degrees)
    -0.040000000
Open Path length (m)
       98.010000
****************** Temporal data record ************************
Elapsedtime_sec Temp_K Press_Pa Humidity_ppmv WindX_m/s WindY_m/s WindZ_m/s Speedofsound_m/s CH4vmr_ppmv CH4vmrerror_ppmv  
      0.00000000       288.65043       98930.659       13826.618       3.1922500      -1.0672500      0.73650000       341.61600       1.9283247     0.011184657
       4.9999729       288.63997       98937.958       13831.852       4.5152500      -1.3090000      0.46050000       341.56300       1.9092609    0.0092367774
       9.9999860       288.64978       98947.300       13857.509       5.0897500      -2.7642500     0.065000010       341.35800       1.9404463     0.012379723
       14.999999       288.65954       98952.948       13883.664       3.6592500      -1.5882500    -0.091000010       341.33100       1.9146490     0.011125533
       19.999972       288.64312       98944.348       13888.100       4.7985000      -1.8847500     -0.36725000       341.38000       1.9385740    0.0093582477
       24.999985       288.65483       98943.479       13917.245       3.1750000      -1.5860000    0.0085000000       341.55000       1.9178899     0.013303895
       29.999998       288.70023       98954.008       13976.595       3.7595000      -2.4075000     -0.39475000       341.32200       1.9260372     0.010306833
       34.999971       288.74550       98934.058       14035.407       3.0662500      -1.1482500     -0.64675000       341.54300       1.9203659    0.0099182778
       39.999984       288.75722       98923.707       14060.839       3.9417500      -1.9637500     -0.29700000       341.38000       1.8927305     0.010417273
       44.999997       288.75486       98911.569       14068.322       3.1052500      -1.1015000     -0.59900000       341.31600       1.9191383     0.011518751
       51.000005       288.75451       98906.778       14079.671       4.6857500      -1.0292500    -0.030000000       341.35200       1.9239645    0.0097978772
       55.999978       288.71026       98913.033       14047.442       4.4890000      -1.8232500     -0.48175000       341.47200       1.9288722     0.012191905
       60.999991       288.69182       98920.438       14038.654       4.8812500      -1.8590000      0.40900000       341.41500       1.9123505     0.010697043
       66.000004       288.71450       98941.197       14065.393       3.8767500      -1.7422500     -0.26500000       341.48500       1.9250407     0.010316462
       70.999977       288.70301       98948.651       14063.005       4.2620000      -1.6357500     -0.28675000       341.36400       1.9766107     0.014867541
       75.999990       288.65223       98951.731       14022.919       3.2625000      -1.6315000     0.029750000       341.44100       1.9111142    0.0090859904
       81.000003       288.64353       98952.220       14026.181       3.2397500      -1.2792500     0.055250000       341.49500       1.9375336     0.011679406
       85.999976       288.65830       98942.932       14062.330       3.4972500     -0.54150000    -0.047750000       341.51900       1.9671439     0.012053616
       90.999989       288.64834       98933.783       14063.392       2.4297500     -0.45800000     0.040250000       341.65000       1.8965968     0.011781439
       96.000002       288.65634       98919.766       14077.284       2.3820000     -0.63800000      0.37525000       341.67600       1.8869298     0.010241022
       100.99998       288.65500       98913.150       14080.184       3.0340000      -1.0222500     0.050000000       341.65300       1.9132924    0.0090584892
       105.99999       288.60968       98902.128       14027.687       3.2857500     -0.52550000      0.36325000       341.63500       1.8922501     0.011646228
       111.00000       288.59116       98901.966       14009.505       4.5452500     -0.95625010     -0.30325000       341.33400       1.9217567     0.011276361
       115.99997       288.61356       98919.516       14043.523       4.1475000      -1.3500000     -0.40800000       341.38700       1.9032190     0.010651491
       120.99999       288.60198       98927.432       14029.214       4.3225000      -1.7075000     -0.57450000       341.36500       1.9008158    0.0095584594
       126.00000       288.56530       98937.479       13988.295       5.2915000      -2.6560000      0.10925000       341.29000       1.9542132     0.011694612
       130.99997       288.54523       98943.211       13955.574       5.3880000      0.12450000     -0.71575000       341.41800       1.9393209     0.011366766
       135.99999       288.49554       98944.612       13874.093       5.6195000     -0.74050000     -0.18450000       341.57200       1.9117994    0.0096034226
       141.99999       288.48986       98940.069       13839.989       5.7630000      -1.6712500     -0.41175000       341.23700       1.9419399     0.011035486
       147.00001       288.55124       98929.028       13869.572       5.3402500     0.045000000    -0.074500000       341.23600       1.9221470     0.010398097
       151.99998       288.55765       98923.121       13860.137       4.2395000      -1.7160000     -0.33375000       341.30500       1.8828804    0.0091207223
       156.99999       288.55828       98912.030       13854.837       5.0542500     -0.99275000     -0.77525000       341.35500       1.9357074     0.011325052
       162.00001       288.55457       98907.284       13846.285       5.5760000      -1.1467500     0.012750000       341.37500       1.9316342     0.010420534
       166.99998       288.50516       98907.540       13801.183       6.0017500     -0.75650010      0.11775000       341.27000       1.9127478    0.0087394069
       171.99999       288.48858       98910.207       13790.926       6.2040000     -0.68450000     -0.53250000       341.13600       1.9187254     0.011238330
       177.00001       288.52563       98916.589       13843.992       5.8112500     -0.15700000     -0.33550000       341.31800       1.9034662    0.0097690996
       181.99998       288.49846       98921.950       13818.691       4.4547500      -1.2862500      0.44800000       341.31300       1.9469328     0.010357698
       186.99999       288.42385       98933.208       13754.656       3.8787500     -0.44150000    -0.063500000       341.36600       1.9361831     0.011559427
       192.00000       288.38410       98938.424       13701.167       4.5990000     -0.41400000    -0.065750000       341.27000       1.9166076     0.013685028
       196.99998       288.30975       98941.137       13582.666       5.1687500      0.46075000    0.0055000000       341.29800       1.8928641    0.0097079053
       201.99999       288.27762       98941.329       13522.707       4.2592500     -0.47175000      0.18250000       341.38300       1.9542023     0.010924355
       207.00000       288.30042       98940.550       13508.960       4.3665000     -0.47775000      0.76950000       341.28000       1.9166141    0.0095775220
       211.99998       288.30070       98934.485       13480.798       5.8512500     -0.89650010     -0.20325000       341.18900       1.9426581     0.011082525
       216.99999       288.30005       98917.835       13461.202       4.7860000      0.55250000      0.36150000       341.33400       1.9007811     0.010579421
       222.00000       288.30000       98911.523       13442.927       4.5932500      -2.2562500    -0.029000000       341.43600       1.9438810     0.010177484
       226.99998       288.28723       98902.838       13410.952       5.1332500      -1.3082500      0.18150000       341.31200       1.9215263    0.0099496687
       232.99998       288.30529       98903.463       13412.883       4.0100000    -0.085500000     -0.44175000       341.32500       1.9241426    0.0098211555
       238.00000       288.34187       98915.180       13439.591       3.9337500    -0.047750000      0.88475010       341.33200       1.8989835    0.0094583405
       242.99997       288.36160       98925.284       13458.766       4.3627500      -1.3470000     -0.23075000       341.22500       1.9197095     0.011606217
       247.99998       288.39932       98942.309       13496.506       3.9155000      -1.2857500     -0.70175000       341.37800       1.9287924     0.012072453
       253.00000       288.41297       98951.012       13526.373       4.9780000      0.30150000     -0.71075000       341.27600       1.9257589     0.014686751
       257.99997       288.40009       98962.244       13539.910       6.2390000     -0.82950000     -0.98400000       341.37400       1.9248600     0.010751595
       262.99998       288.40009       98963.233       13579.797       4.0730000      -1.6872500     0.013500000       341.43800       1.9007564    0.0084609457
       267.99999       288.38892       98955.153       13638.420       4.7755000      -1.6925000      -1.3060000       341.27500       1.9371012     0.011411969
       272.99997       288.40496       98946.324       13692.146       5.0305000      -1.7027500    -0.078250010       341.29300       1.8889034     0.013433122
       277.99998       288.45307       98928.818       13786.934       4.9567500      -1.3465000     -0.19625000       341.22600       1.8816355    0.0084725910
       282.99999       288.45686       98918.473       13803.919       2.8752500     -0.90975000      0.91325000       341.49100       1.9111585     0.011229247
       288.00001       288.45818       98902.777       13780.083       6.0340000      -2.6712500     -0.20675000       341.09900       1.9322762    0.0099258906
       292.99998       288.45166       98901.612       13762.963       5.6692500      -1.3357500     -0.27325000       341.05700       1.9135893    0.0098874341
       297.99999       288.39020       98912.018       13683.103       3.3967500      -1.3412500      0.53725000       341.27600       1.8950947     0.011243253
       303.00001       288.39284       98918.327       13664.642       4.3830000     -0.97700010      0.42025000       341.36200       1.8892526    0.0088540413
       307.99998       288.44247       98932.233       13692.862       3.5442500      -1.6495000      0.20700000       341.34400       1.9465133     0.010946127
       312.99999       288.46246       98941.624       13687.225       3.6605000     -0.84750000      0.73925010       341.37400       1.9016701    0.0097234468
       318.00001       288.51107       98948.672       13691.993       5.2315000      -1.6437500     -0.31150000       341.21000       1.9054703     0.010570632
       323.99997       288.50525       98954.938       13664.947       4.1297500      -2.0315000    -0.058250000       341.27200       1.9463752     0.012436246
       328.99999       288.44478       98963.520       13589.625       4.5122500     -0.40000000     -0.19700000       341.13000       1.9270184    0.0099474135
       334.00000       288.44329       98960.198       13599.319       4.2130000      -2.3115000     0.011750000       341.20100       1.8989978    0.0094055201
       338.99997       288.45151       98948.645       13642.991       4.9785000      0.79750000     0.074000000       341.28800       1.9184906     0.011589433
       343.99998       288.44159       98938.805       13664.026       5.8890000      -1.5577500     -0.26875000       341.25300       1.9156060    0.0094724946
       349.00000       288.44785       98920.457       13717.696       4.4992500    -0.018250000     -0.18900000       341.21200       1.9136722     0.010210892
       353.99997       288.45804       98913.086       13766.064       4.0060000      0.30350000     -0.39800000       341.18300       1.9005738     0.012690926
       358.99998       288.43514       98907.788       13775.529       3.5855000      -1.1180000     -0.14225000       341.45500       1.9273658     0.011748709
       364.00000       288.46249       98909.202       13847.697       3.6760000      -1.2937500      -1.8410000       341.41300       1.9432823     0.010641677
       368.99997       288.55810       98916.640       13999.636       1.9935000     -0.29975000      0.17100000       341.53800       1.8915577    0.0099343783
       373.99998       288.57054       98926.135       14055.244       3.8387500      -2.0460000     -0.34875000       341.45400       1.9389646     0.010020339
       379.00000       288.55827       98944.406       14093.565       4.1782500      -1.5307500      0.68600000       341.44600       1.9447381     0.012035081
       383.99997       288.54929       98952.651       14112.680       3.6557500      -2.0342500     -0.33375000       341.40600       1.8832870     0.010165547
       388.99998       288.49775       98961.190       14071.554       3.7245000      -1.4422500      0.19375000       341.40500       1.9250754     0.012183168
       394.00000       288.48675       98964.653       14074.187       4.3720000      -1.8140000     -0.50200000       341.19900       1.9080588    0.0090042188
       398.99997       288.50853       98962.859       14113.099       3.2347500      -2.5210000     -0.48725000       341.40400       1.8993071     0.011888111
       403.99998       288.48970       98957.222       14075.211       2.5475000      -1.7345000      0.31675000       341.55800       1.9398509     0.013221455
       409.99999       288.44989       98946.791       13994.142       2.3770000      -1.1477500      0.41750000       341.54200       1.9534065     0.011839458
       415.00000       288.41485       98930.147       13873.019       2.6350000      -1.1007500      0.48100000       341.65000       1.9657388     0.016736834
       419.99997       288.39371       98918.909       13796.977       3.7482500      -1.6440000    -0.092750010       341.30600       1.9365013     0.011724874
       424.99999       288.38492       98910.130       13745.085       3.6690000      -1.2677500     -0.31325000       341.29700       1.9101524     0.011363167
       430.00000       288.39293       98902.053       13715.358       3.6255000      -1.7485000     0.083000000       341.24700       1.9543268     0.013855596
       434.99997       288.41434       98904.700       13719.795       2.7892500      -1.8855000     -0.43725000       341.43800       1.9323130     0.011066670
       439.99999       288.45578       98914.194       13763.143       3.8745000      -1.0000000     -0.46400000       341.36000       1.9183826     0.011058691
       445.00000       288.45438       98928.748       13786.596       3.0760000      0.11300000    -0.056000000       341.48900       1.9210405     0.013303448
       449.99997       288.45574       98937.239       13809.775       4.5570000      0.19775000      0.13450000       341.49400       1.9275360     0.011515472
       454.99999       288.40013       98935.928       13797.951       4.0290000     -0.87525000     -0.13725000       341.43900       1.9333669     0.011835721
       460.00000       288.38803       98939.819       13815.505       2.8005000      -1.4915000     -0.14650000       341.62000       1.9131572     0.010950453
       464.99997       288.40062       98944.945       13850.693       3.0827500     0.094500010     0.054250000       341.33900       1.9215950     0.010719796
       469.99999       288.44968       98951.643       13914.310       4.1652500     -0.20450000      0.73150000       341.46200       1.9433898     0.010259684
       475.00000       288.47013       98951.444       13948.750       4.0737500      0.41025000      0.12050000       341.17400       1.9485398     0.011807329
       479.99997       288.50617       98953.200       13990.631       4.2577500      0.37125000     -0.12325000       341.39700       1.9443858     0.015021900
       484.99998       288.50017       98935.508       14005.137       3.8850000     -0.59800000      0.21625000       341.46300       1.9516436     0.011153311
       490.00000       288.50030       98924.290       14018.107       4.7090000      -1.8600000      0.19800000       341.41400       2.0069477     0.011590899
       494.99997       288.50024       98910.177       14031.390       4.0812500     -0.70650010      0.16100000       341.46100       1.9801068     0.012712301
       500.99998       288.50037       98901.927       14041.277       4.7560000     -0.24150000     -0.57950000       341.39300       1.9884769     0.012283131
       505.99999       288.50006       98904.650       14045.058       2.7402500      -1.0125000      0.13600000       341.30700       2.2335549    0.0091841489
       511.00000       288.50009       98904.748       14039.036       1.9902500      -1.4415000      0.51850000       341.53900       2.2124305     0.011847280
       515.99998       288.48544       98905.103       14000.568       2.2247500     -0.69850000     0.022000000       341.68200       2.1069407     0.012147546
       520.99999       288.49678       98910.465       14003.370       3.3722500      -1.0282500     -0.31175000       341.45800       1.9992950     0.013862975
       526.00000       288.53384       98920.313       14019.169       3.4497500     -0.80700000     -0.25550000       341.30500       1.9825622     0.011214688
       530.99998       288.55390       98926.276       14041.826       2.9625000     -0.88525000      0.89575000       341.60000       2.0212514     0.014602275
       535.99999       288.59032       98934.658       14108.829       2.7210000     -0.94475010     -0.48850000       341.53700       1.9333906     0.011361807
       541.00000       288.60943       98942.647       14154.988       4.3427500     -0.39575000     0.081500000       341.25600       1.9144837     0.010399447
       545.99998       288.59984       98950.104       14179.262       4.0927500      -2.1302500     -0.11725000       341.17100       1.9436870     0.013673607
       550.99999       288.59969       98951.882       14219.141       4.8172500      -1.9660000     -0.26725000       341.16000       1.9259432     0.010875965
       556.00000       288.61531       98953.284       14301.332       3.3885000      -1.7220000     -0.35875000       341.31200       1.9062887     0.010840468
       560.99997       288.60416       98951.907       14320.405       3.4547500      -2.5082500     -0.32800000       341.60500       1.9256041     0.010001478
       565.99999       288.53780       98941.606       14280.867       3.3540000      -1.2500000      0.37150000       341.44100       1.9389606     0.011152849
       571.00000       288.54052       98933.542       14287.970       3.8147500      -1.7182500     0.038000000       341.37800       1.9163552     0.012351773
       575.99997       288.59261       98925.613       14295.427       2.5127500     -0.72400000     0.053750000       341.71000       1.9120290     0.010036552
       580.99999       288.60278       98918.550       14278.391       2.4950000     -0.40750000    -0.017500000       341.70300       1.9017900     0.010138902
       586.00000       288.64698       98900.367       14287.319       1.3532500     -0.61750000      0.50575000       341.72500       1.8858408     0.010524773
       592.00001       288.66450       98902.968       14278.756       2.2587500     -0.72425000      0.16400000       341.61600       1.9165959     0.010481039
       596.99998       288.60498       98923.582       14206.594       1.8745000     -0.72825000      0.17725000       341.74800       1.9160902     0.010408592
       601.99999       288.58874       98933.842       14181.233       3.4942500     -0.37850000     -0.12475000       341.44600       1.9327329     0.012795124
