MIRICO/SHELL project - Processed LDS file generated on
Thu Jul 27 04:28:16 2017
Time stamp for record start
05/12/2017  14:02: 5.0001
Nb of points in the record
         547
Beam position index
       5.0000000
Beam angle (degrees)
       8.5250000
Open Path length (m)
       83.010000
****************** Temporal data record ************************
Elapsedtime_sec Temp_K Press_Pa Humidity_ppmv WindX_m/s WindY_m/s WindZ_m/s Speedofsound_m/s CH4vmr_ppmv CH4vmrerror_ppmv  
      0.00000000       288.65043       98930.659       13826.618       4.9542500      -2.5267500     -0.74175010       341.34600       1.9658552     0.010489420
       4.9999729       288.63997       98937.958       13831.852       3.5297500     -0.47325000     0.019500000       341.59700       1.9398070     0.011063780
       10.999981       288.65174       98948.725       13862.700       4.0430000      -1.9970000      0.44325000       341.62900       2.0053322     0.018974735
       15.999994       288.64300       98945.984       13873.137       3.6787500      -2.5000000     -0.11050000       341.43300       1.9700291     0.012205482
       21.000007       288.64444       98944.069       13892.999       4.8675000     -0.60950010     -0.10800000       341.44900       1.9911153     0.013676665
       25.999980       288.67597       98954.782       13941.203       1.9762500      -2.4212500    -0.032500000       341.57600       2.0304987     0.013085241
       30.999993       288.70629       98953.062       13985.332       2.8035000      -2.8942500    -0.085750010       341.36000       1.9771307    0.0099546275
       36.000006       288.74887       98931.776       14041.652       2.9645000     -0.20500000      0.33050000       341.52800       2.0261081     0.011160101
       40.999979       288.75803       98921.954       14064.184       5.3157500      -1.1747500      0.40300000       341.41400       1.9735269     0.012923345
       45.999992       288.75603       98910.157       14071.426       3.1787500     -0.98800000     -0.10275000       341.41800       1.9682819     0.010112183
       51.000005       288.75451       98906.778       14079.671       3.1827500     -0.87875000      0.52100000       341.45800       1.9963549     0.011299283
       55.999978       288.71026       98913.033       14047.442       5.6885000      -2.4030000     -0.40325000       341.21500       1.9890297     0.012121153
       60.999991       288.69182       98920.438       14038.654       4.5445000      -1.3765000     -0.64350000       341.27300       1.9996531     0.012465523
       66.000004       288.71450       98941.197       14065.393       3.7462500      -2.4025000      0.19600000       341.42200       1.9830457     0.010663612
       70.999977       288.70301       98948.651       14063.005       3.9057500      -1.3735000     -0.12700000       341.44800       1.9916682     0.011611592
       75.999990       288.65223       98951.731       14022.919       3.4405000     -0.33275000      0.23625000       341.48800       1.9649662    0.0091096110
       81.000003       288.64353       98952.220       14026.181       3.1217500      -1.2032500     -0.49300000       341.49400       1.9798293     0.011900913
       85.999976       288.65830       98942.932       14062.330       2.5475000     -0.77225010      0.15100000       341.56900       1.9965365     0.011932874
       90.999989       288.64834       98933.783       14063.392       2.7725000     -0.74675010     0.038250000       341.63600       1.9639871     0.011284381
       96.000002       288.65634       98919.766       14077.284       2.3122500     -0.31050000      0.80525000       341.75900       1.9462856    0.0099660447
       101.99997       288.65325       98912.120       14078.824       2.4070000     -0.93175010      0.34325000       341.65000       1.9998270     0.011586781
       106.99998       288.60497       98901.488       14022.850       3.6605000     -0.11350000      0.10900000       341.37000       1.9563800    0.0096512097
       112.00000       288.58896       98902.846       14007.668       3.9490000      -1.0545000     0.021250000       341.47100       1.9836732     0.011629404
       116.99997       288.61224       98921.200       14042.109       3.5685000     -0.84475000     -0.12875000       341.39800       1.9631223     0.010109335
       121.99998       288.59817       98928.863       14024.183       4.0390000     -0.56225000      0.39225000       341.45300       1.9919453     0.011324479
       127.00000       288.56126       98938.929       13982.398       4.5800000      -2.1715000      0.11125000       341.31500       1.9643094    0.0096707599
       131.99997       288.54126       98943.903       13948.060       4.8842500      0.29500000      -1.0590000       341.33900       1.9316089    0.0090134369
       136.99998       288.49214       98944.227       13865.918       5.3945000      0.14650000     0.099250000       341.46700       1.9679089    0.0099682426
       141.99999       288.48986       98940.069       13839.989       5.9017500      -1.8615000     -0.73150000       341.23200       1.9152938     0.010819928
       147.00001       288.55124       98929.028       13869.572       5.2945000      -1.1462500      0.38300000       341.30800       1.9656804     0.011144796
       151.99998       288.55765       98923.121       13860.137       4.8565000      -1.0915000     -0.71700000       341.43000       1.9948872     0.011125637
       156.99999       288.55828       98912.030       13854.837       4.7720000     -0.15650000      0.22975000       341.38900       1.9684792    0.0098321512
       162.00001       288.55457       98907.284       13846.285       6.2757500     -0.31425000      0.60225000       341.41700       1.9192815    0.0087732166
       166.99998       288.50516       98907.540       13801.183       6.0527500      -1.3597500     -0.77125000       341.41300       1.9416744    0.0085215017
       171.99999       288.48858       98910.207       13790.926       5.9602500      -1.6415000     -0.46025000       341.21100       1.9110454    0.0086973950
       177.00001       288.52563       98916.589       13843.992       5.8315000      -1.0895000     -0.38575000       341.28100       1.9232346    0.0087635021
       181.99998       288.49846       98921.950       13818.691       4.0752500      -2.2370000     -0.23550000       341.28300       1.8971766    0.0095126336
       186.99999       288.42385       98933.208       13754.656       3.6552500     -0.44400000     -0.17975000       341.39800       1.9891862     0.011889516
       193.00000       288.37615       98939.170       13688.670       4.4007500      0.32425000     -0.16225000       341.31400       1.9529665    0.0096563517
       197.99997       288.30132       98941.379       13568.699       5.4565000     -0.25175000     -0.22250000       341.26700       1.9694650     0.010307271
       202.99999       288.27421       98941.062       13513.666       5.1140000     -0.32575000     -0.11750000       341.23000       1.9455091    0.0093885950
       208.00000       288.30047       98939.636       13502.924       5.1040000     -0.78200010     0.010000000       341.18700       1.9775195     0.011487766
       212.99997       288.30076       98932.824       13475.771       5.9550000      -1.0115000      0.16900000       341.23600       1.9412616    0.0097294499
       217.99998       288.30004       98916.363       13457.383       4.8645000    -0.047500000      0.16300000       341.29700       1.9667882     0.010449899
       223.00000       288.29999       98910.576       13439.518       4.7320000     -0.44000000     -0.73250000       341.32500       1.9013424    0.0097387891
       227.99997       288.28901       98902.327       13409.625       5.3335000      0.31625000     0.076000010       341.44200       1.9721386     0.011062756
       232.99998       288.30529       98903.463       13412.883       5.7975000      0.79150000     -0.63325010       341.28500       1.9405530    0.0093659010
       238.00000       288.34187       98915.180       13439.591       4.4207500     -0.32875000     -0.18125000       341.35900       1.9497147    0.0082769173
       242.99997       288.36160       98925.284       13458.766       4.6650000      -1.4862500    -0.092500000       341.21000       1.9286808    0.0095769629
       247.99998       288.39932       98942.309       13496.506       4.1227500      -1.3127500     -0.24350000       341.34600       1.9819960     0.011233569
       253.00000       288.41297       98951.012       13526.373       4.4757500    -0.069500010     0.069500010       341.29900       1.9630850    0.0098450670
       257.99997       288.40009       98962.244       13539.910       5.3757500     -0.64300000      0.37675000       341.36900       1.9718438     0.010893920
       262.99998       288.40009       98963.233       13579.797       5.9272500      -2.5460000     0.031500000       341.32100       1.9203978    0.0088544590
       267.99999       288.38892       98955.153       13638.420       6.6132500      -3.5495000     -0.30800000       341.07200       1.9483712    0.0089907187
       272.99997       288.40496       98946.324       13692.146       4.6450000     -0.95475010      0.23250000       341.33600       1.8606519     0.010578808
       277.99998       288.45307       98928.818       13786.934       3.9235000     -0.73300000      0.80100010       341.32100       1.9322167    0.0092607022
       283.99999       288.45615       98916.550       13803.308       3.7925000     0.058500000      0.90800010       341.44000       1.9778570     0.011118250
       289.00000       288.45790       98901.939       13778.049       5.7137500      -2.7680000     -0.54125010       341.18000       1.9552381     0.010019337
       293.99997       288.44881       98902.286       13757.458       5.1925000      -2.0522500      0.26950000       341.30500       1.9532496     0.010558631
       298.99999       288.38872       98913.080       13677.651       4.5520000      -1.0162500     -0.33050000       341.23800       1.9181959    0.0080695690
       304.00000       288.39638       98919.889       13663.587       3.7192500      -1.5900000    -0.083250000       341.32500       1.9500859    0.0096527666
       308.99997       288.44649       98934.217       13692.089       3.3485000      -2.3612500      0.28300000       341.23800       1.9361041     0.011525200
       313.99999       288.46642       98943.343       13685.565       2.4532500      -1.6405000     -0.36375000       341.41600       1.9947251     0.011053677
       319.00000       288.51255       98949.837       13688.983       4.8245000      -1.3772500      0.16925000       341.31500       1.7747510     0.016919510
       323.99997       288.50525       98954.938       13664.947       3.9665000      -1.1395000      -1.0852500       341.13900       1.9437582    0.0083471141
       328.99999       288.44478       98963.520       13589.625       3.3952500      -1.3692500     -0.25225000       341.23700       1.9518650     0.010383720
       334.00000       288.44329       98960.198       13599.319       4.3772500      -1.8302500     -0.35750000       341.24500       1.9565130     0.010700663
       338.99997       288.45151       98948.645       13642.991       3.7770000     -0.81325010     0.093000000       341.32500       1.9964932     0.011944930
       343.99998       288.44159       98938.805       13664.026       4.9665000      -2.0902500    -0.022500000       341.32700       1.9555782    0.0088731332
       349.00000       288.44785       98920.457       13717.696       4.3925000      -1.7867500    0.0022500000       341.17100       1.9645328    0.0081325902
       353.99997       288.45804       98913.086       13766.064       5.0895000      0.40225000     0.061500000       341.22000       1.9039670    0.0090003564
       358.99998       288.43514       98907.788       13775.529       4.0070000      -2.3977500      0.95300010       341.31900       1.9567311    0.0087084501
       364.00000       288.46249       98909.202       13847.697       5.2302500     -0.13800000     -0.87850000       341.35800       1.9827307     0.010070929
       368.99997       288.55810       98916.640       13999.636       2.5410000      -1.4160000      0.71150000       341.47400       1.9313985    0.0090235226
       374.99998       288.57007       98928.477       14063.066       3.2622500      -1.6980000      0.41400000       341.40100       1.9638045    0.0091028357
       379.99999       288.55750       98946.248       14099.391       4.0387500      -1.3827500      0.36575000       341.45000       1.9887141     0.010708236
       385.00000       288.54595       98954.010       14113.498       4.4622500      -1.7327500     -0.37150000       341.21200       1.9675066    0.0096465009
       389.99998       288.49454       98962.182       14071.477       4.8105000      -1.0197500     -0.56350000       341.42800       2.0026699     0.011620812
       394.99999       288.51454       98964.657       14120.684       4.3542500      -1.9517500      0.51375000       341.22400       2.0074051     0.013026990
       400.00000       288.50577       98962.033       14108.043       2.9040000      -2.2597500     -0.25725000       341.48600       2.0045253     0.012657561
       404.99998       288.46980       98954.401       14047.315       3.1900000     -0.92900000      0.59725000       341.52100       1.9489019    0.0096239693
       409.99999       288.44989       98946.791       13994.142       3.3802500      -1.4342500     -0.22575000       341.44500       1.9315471    0.0095978998
       415.00000       288.41485       98930.147       13873.019       2.9837500      -1.2160000     -0.29675000       341.62200       1.9918668     0.012703292
       419.99997       288.39371       98918.909       13796.977       3.4520000      -1.6920000     -0.35425000       341.37600       1.9697078     0.011772455
       424.99999       288.38492       98910.130       13745.085       4.2827500      -1.5767500      0.25125000       341.46400       1.9740959     0.011040623
       430.00000       288.39293       98902.053       13715.358       3.4560000     -0.89825000    0.0052500000       341.54000       2.0138397     0.012675224
       434.99997       288.41434       98904.700       13719.795       2.7900000      -1.8200000      0.37300000       341.54300       1.9587044    0.0093238508
       439.99999       288.45578       98914.194       13763.143       4.1847500      -1.3990000      0.26275000       341.40600       1.9828544     0.011556764
       445.00000       288.45438       98928.748       13786.596       4.1727500     -0.39550000     0.095000010       341.31900       1.9785704    0.0098173588
       449.99997       288.45574       98937.239       13809.775       3.8692500   -0.0057500000      0.15900000       341.48600       2.0449852     0.012609698
       454.99999       288.40013       98935.928       13797.951       3.2110000     -0.85075000      -1.0302500       341.38900       2.0462644     0.015726589
       460.99999       288.38857       98940.745       13821.127       2.6572500      -1.6057500     -0.26150000       341.52900       1.8305960     0.011494873
       466.00001       288.43361       98950.022       13884.144       2.5062500     -0.18675000      0.38375000       341.58600       2.0114369     0.011489882
       470.99998       288.45374       98951.801       13921.489       3.9835000     -0.88025000    -0.041750000       341.43300       2.0427251     0.010550786
       475.99999       288.49003       98955.626       13963.915       3.7607500      0.20475000     0.020250000       341.33500       2.0662270     0.010853557
       481.00001       288.50897       98951.971       13996.276       3.3145000      0.28350000     -0.40450000       341.32900       2.1253742     0.012958124
       485.99998       288.50019       98933.152       14007.937       3.3692500     -0.43650000     -0.58950000       341.43500       2.2011272     0.013029005
       490.99999       288.50034       98922.215       14020.393       4.2942500      -1.2212500     -0.11800000       341.38400       2.5296650     0.010023415
       496.00001       288.50026       98908.309       14033.555       3.3507500      0.58600000      0.40475000       341.50500       2.5149419     0.011174907
       500.99998       288.50037       98901.927       14041.277       4.2975000    -0.072750000     -0.14125000       341.37100       4.5199872     0.016002730
       505.99999       288.50006       98904.650       14045.058       2.2475000     -0.51950000      0.43225000       341.53800       4.3745893     0.012061709
       511.00000       288.50009       98904.748       14039.036       2.6045000     -0.61150000      0.15325000       341.60500       3.4479612     0.011221482
       515.99998       288.48544       98905.103       14000.568       2.4790000     -0.90775010   -0.0055000000       341.49800       3.0093020     0.011461136
       520.99999       288.49678       98910.465       14003.370       3.1882500      -1.2775000      0.24950000       341.49700       2.3296580     0.010982836
       526.00000       288.53384       98920.313       14019.169       2.9060000      -1.0577500      0.64600000       341.36700       2.1966217     0.011694903
       530.99998       288.55390       98926.276       14041.826       2.7845000      -1.4565000      0.26825000       341.62400       2.1405904     0.011753919
       535.99999       288.59032       98934.658       14108.829       2.2945000     -0.88375000     -0.68225000       341.57500       2.0451056     0.012654371
       541.00000       288.60943       98942.647       14154.988       4.3930000     -0.88700000     -0.39600000       341.30500       2.0088093     0.011302297
       545.99998       288.59984       98950.104       14179.262       4.4060000      -1.6152500    -0.050000000       341.13900       1.9756098     0.010648742
       551.99998       288.59965       98951.943       14227.693       4.9562500      -1.7362500      0.50475000       341.52200       2.0291753     0.014609025
       557.00000       288.61409       98953.315       14307.308       2.7040000      -1.1052500     -0.41875000       341.32500       1.9853902     0.010178069
       561.99997       288.60042       98951.171       14320.977       2.2102500      -1.9375000       1.3612500       341.61400       2.0020020     0.012224489
       566.99998       288.53633       98939.990       14282.057       3.7110000      -1.9065000      0.14450000       341.35600       1.9733470    0.0099049807
       572.00000       288.54408       98931.934       14289.737       3.8540000      -1.4067500     0.069500010       341.37800       2.0152587     0.011949257
       576.99997       288.59468       98924.194       14292.036       2.1422500     -0.89200000    -0.030250000       341.62200       2.0095466     0.011340928
       581.99998       288.60476       98917.147       14274.960       2.8727500      -1.0037500      0.22375000       341.76000       2.1102694     0.010911444
       586.99999       288.65236       98899.816       14287.653       2.1522500      -1.3282500      0.21225000       341.39700       2.0356677     0.012530682
       592.00001       288.66450       98902.968       14278.756       2.5162500      -1.1140000     -0.38950000       341.49800       2.0219396     0.014514014
       596.99998       288.60498       98923.582       14206.594       2.1090000      -1.2087500     0.061250000       341.53900       1.9921577     0.012546283
       601.99999       288.58874       98933.842       14181.233       3.7772500      0.40900000     -0.55825000       341.64600       1.9517966    0.0095190494
