MIRICO/SHELL project - Processed LDS file generated on
Thu Jul 27 18:54:34 2017
Time stamp for record start
05/12/2017  14:02: 6.0001
Nb of points in the record
         547
Beam position index
       6.0000000
Beam angle (degrees)
       13.594000
Open Path length (m)
       58.300000
****************** Temporal data record ************************
Elapsedtime_sec Temp_K Press_Pa Humidity_ppmv WindX_m/s WindY_m/s WindZ_m/s Speedofsound_m/s CH4vmr_ppmv CH4vmrerror_ppmv  
      0.00000000       288.64843       98931.263       13829.423       4.7627500      -2.4250000     -0.83400010       341.35000       1.8445576     0.020244482
       4.9999729       288.64194       98940.122       13836.943       3.5105000     -0.59475000       1.1087500       341.66700       1.8075700     0.025677025
       9.9999860       288.65174       98948.725       13862.700       3.8407500      -1.2955000    -0.051750000       341.40100       1.7616017     0.023712614
       14.999999       288.64300       98945.984       13873.137       4.6460000     -0.98500010     -0.13075000       341.50400       1.8820286     0.018661033
       20.000012       288.64444       98944.069       13892.999       5.0967500      -1.4340000      0.57925000       341.29600       1.8210534     0.021804612
       24.999985       288.67597       98954.782       13941.203       3.0842500      -2.3122500     -0.14475000       341.56000       1.8937286     0.019986594
       29.999998       288.70629       98953.062       13985.332       3.1302500      -1.0382500      0.62725000       341.48900       1.8836326     0.019079562
       35.000011       288.74887       98931.776       14041.652       3.1300000      -1.2292500     -0.11100000       341.45700       1.9251161     0.020340986
       39.999984       288.75803       98921.954       14064.184       4.3827500      -1.2200000      0.64000000       341.43200       1.8355997     0.020953110
       44.999997       288.75603       98910.157       14071.426       5.0622500      -1.0370000    -0.031250000       341.43900       1.9104532     0.014713005
       50.000010       288.75451       98906.778       14079.671       3.7582500     -0.46275000      0.93100010       341.51500       1.8531413     0.019405336
       54.999983       288.71026       98913.033       14047.442       5.7577510      -1.5240000     -0.49200000       341.25300       1.8909477     0.018177505
       60.999991       288.68961       98922.364       14038.184       4.4952500      -1.2475000     -0.21725000       341.31700       1.8769857     0.017745466
       66.000004       288.71322       98943.087       14065.787       4.0130000      -2.9157500      0.15350000       341.38200       1.8838216     0.020813440
       70.999977       288.69918       98949.544       14061.220       3.8180000     -0.71875010     -0.25300000       341.47100       1.8217739     0.023378225
       75.999990       288.64950       98952.231       14022.422       2.1267500      -1.9857500      0.70200000       341.53800       1.8721000     0.019592415
       81.000003       288.64329       98951.714       14028.557       2.8815000      -1.3310000    -0.075500000       341.41900       1.9005047     0.019411534
       85.999976       288.65632       98941.199       14062.924       3.4860000     0.058500000      0.52250000       341.61300       1.9419603     0.025071327
       90.999989       288.64632       98931.808       14063.032       2.3372500   -0.0092500000      0.22175000       341.66000       1.8036114     0.021175520
       96.000002       288.65706       98918.247       14079.158       2.4835000     -0.19050000     0.067000000       341.67800       1.7154549     0.021964112
       100.99998       288.65325       98912.120       14078.824       3.5720000      -1.2800000     -0.13775000       341.63900       1.8760812     0.019037208
       105.99999       288.60497       98901.488       14022.850       3.8212500      -1.9552500      0.65025000       341.49300       1.9575375     0.022944911
       111.00000       288.58896       98902.846       14007.668       4.1512500      -2.6677500    -0.096250010       341.32900       1.8848640     0.018886459
       115.99997       288.61224       98921.200       14042.109       3.7240000     -0.94475010      0.64000000       341.38900       1.8680251     0.019681899
       120.99999       288.59817       98928.863       14024.183       3.7280000      -1.8930000     -0.22675000       341.45200       1.8384839     0.019767188
       126.00000       288.56126       98938.929       13982.398       5.1907500      -2.0435000      0.52175000       341.36600       1.8293289     0.022508223
       130.99997       288.54126       98943.903       13948.060       5.1347500     -0.40200000     -0.16375000       341.40200       1.8880626     0.021418726
       135.99999       288.49214       98944.227       13865.918       5.9037500     -0.85375010     -0.15475000       341.16300       1.8334862     0.020338434
       141.00000       288.48986       98940.069       13839.989       6.8317500      -1.5692500    -0.043500000       341.26900       1.9125494     0.018922893
       146.00001       288.55124       98929.028       13869.572       4.9842500     -0.95275000     -0.64225000       341.27000       1.8925763     0.021400061
       151.99998       288.55745       98921.938       13857.724       3.4225000     -0.84000000     -0.73625000       341.40500       2.0059958     0.018211767
       156.99999       288.55857       98910.779       13853.734       4.6645000     -0.69825010       1.1280000       341.44800       1.9326718     0.019433339
       162.00001       288.55228       98906.789       13843.665       6.3040000      -2.5812500     -0.51025000       341.34900       1.9162919     0.019729401
       166.99998       288.50084       98907.875       13797.897       6.0025000      -1.1940000      0.12400000       341.33100       1.9238433     0.014927801
       171.99999       288.48676       98911.039       13790.725       5.9800000      -1.9035000    -0.086000000       341.22000       2.0255908     0.020729083
       177.00001       288.52221       98917.565       13841.310       6.5870000      -1.1147500     -0.24675000       341.24700       1.8992742     0.018713137
       181.99998       288.49001       98923.167       13810.069       3.6707500      -1.3365000      0.29575000       341.36700       1.9111968     0.021697652
       186.99999       288.41590       98934.449       13745.162       2.9602500      0.10500000       1.0385000       341.57100       1.8533042     0.019259023
       192.00000       288.37615       98939.170       13688.670       5.0515000      0.47050000     -0.12400000       341.37500       1.8459715     0.019414513
       196.99998       288.30132       98941.379       13568.699       5.2007500     -0.19325000     -0.18850000       341.24700       1.9278576     0.018865599
       201.99999       288.27421       98941.062       13513.666       5.7557500     0.044750000     -0.16200000       341.34500       1.8700759     0.020017328
       207.00000       288.30047       98939.636       13502.924       5.4772500      -1.1075000      0.54375000       341.23400       1.8761239     0.018584625
       211.99998       288.30076       98932.824       13475.771       5.6432500      -1.9412500      0.16275000       341.23500       1.8626355     0.021333745
       216.99999       288.30004       98916.363       13457.383       5.1982500       1.2232500     0.012500000       341.29200       1.8396325     0.019719428
       222.00000       288.29999       98910.576       13439.518       4.9672500     -0.54125010     -0.42500000       341.41100       1.8754430     0.018460491
       226.99998       288.28901       98902.327       13409.625       4.8880000       1.0430000    -0.022500000       341.27500       1.8681243     0.017448961
       231.99999       288.30529       98903.463       13412.883       5.6970010      -1.2667500     -0.25950000       341.29400       1.8909827     0.017304245
       237.00000       288.34187       98915.180       13439.591       4.9557500    -0.010750000      0.64500000       341.31700       1.8769304     0.017917227
       243.00001       288.36555       98927.599       13463.353       4.9230000      -1.3377500      0.47900000       341.30900       1.9127518     0.015772764
       247.99998       288.40306       98944.244       13502.596       4.5115000      -1.4155000     -0.36125000       341.34500       1.9629908     0.021298728
       253.00000       288.41419       98952.462       13532.168       4.6360000      -1.8120000      0.41475000       341.28400       1.8459357     0.017575703
       258.00001       288.40009       98962.942       13546.917       2.8900000      -1.1570000      0.63925000       341.45000       1.8822411     0.016070890
       262.99998       288.40009       98962.681       13589.231       6.6262500      -2.4562500     0.087500010       341.22500       1.8992164     0.019251793
       267.99999       288.39112       98953.684       13648.808       5.0997500      -1.6632500     -0.18950000       341.18900       1.8294585     0.017936854
       273.00001       288.40967       98944.114       13703.432       5.9765010      -2.4557500     -0.38450000       341.21800       1.9837428     0.015943648
       277.99998       288.45481       98926.651       13793.001       3.9262500      -1.1820000      0.36800000       341.30100       1.9202713     0.020847540
       282.99999       288.45615       98916.550       13803.308       4.4767500      0.26600000      0.47800000       341.36200       1.8947758     0.017630531
       288.00001       288.45790       98901.939       13778.049       5.3607500      -3.0352500     -0.25325000       341.07700       1.9009594     0.017390711
       292.99998       288.44881       98902.286       13757.458       4.9157500      -1.6450000      -1.1100000       341.18100       1.8523913     0.018992465
       297.99999       288.38872       98913.080       13677.651       4.3075000      -1.4475000     -0.36850000       341.29700       1.9053232     0.018391629
       303.00001       288.39638       98919.889       13663.587       6.2077500      -1.3912500     -0.64150010       341.13800       1.8260190     0.015931106
       307.99998       288.44649       98934.217       13692.089       2.9162500     -0.74375000      0.43000000       341.36900       1.8107714     0.018051774
       312.99999       288.46642       98943.343       13685.565       1.8077500      -2.1952500       1.1985000       341.43000       1.8352198     0.019417933
       318.00001       288.51255       98949.837       13688.983       3.1562500     -0.69925000     0.032750000       341.35200       1.8511181     0.018625303
       322.99998       288.50525       98954.938       13664.947       2.9757500     -0.66875000      0.55475000       341.41000       1.8053489     0.018977720
       327.99999       288.44478       98963.520       13589.625       3.3830000     -0.61325000     0.037250000       341.37500       1.8843161     0.016217128
       334.00000       288.44447       98958.794       13604.797       3.3890000      -3.6067500     -0.65150000       341.38100       1.8654746     0.015203793
       339.00001       288.44951       98946.888       13646.581       4.1585000      -1.5735000     -0.15950000       341.39300       1.8943846     0.017536519
       343.99998       288.43963       98936.520       13669.157       4.8537500      -1.5635000     -0.41650000       341.17400       1.8703492     0.018900851
       349.00000       288.44989       98918.682       13727.406       4.4647500      -1.7495000     -0.39875000       341.08900       1.9000507     0.018858672
       354.00001       288.43119       98910.297       13739.743       4.5917500     -0.52850000     -0.58600000       341.25700       1.8248586     0.018486097
       358.99998       288.43862       98907.666       13787.516       2.7875000      0.23950000       1.6090000       341.51400       1.8623425     0.017992575
       364.00000       288.53041       98911.704       13935.502       3.7302500     -0.30250000      0.84625010       341.55900       1.8633738     0.017682734
       369.00001       288.56256       98918.243       14012.951       2.8877500      -1.2380000      0.13275000       341.56600       1.9019450     0.019599383
       373.99998       288.57007       98928.477       14063.066       2.5787500     -0.83575000      0.26050000       341.50000       1.9506734     0.019130730
       379.00000       288.55750       98946.248       14099.391       3.4230000     -0.91300000     -0.74825000       341.35000       1.8863424     0.017824706
       384.00001       288.54595       98954.010       14113.498       4.0442500      -2.1402500     -0.50400000       341.21100       1.8517408     0.016277810
       388.99998       288.49454       98962.182       14071.477       2.8327500      -1.1480000       1.0172500       341.54600       1.8200551     0.016957301
       394.00000       288.51454       98964.657       14120.684       5.5102500      -2.1227500      0.19775000       341.18900       1.8930025     0.019375708
       399.00001       288.50577       98962.033       14108.043       3.7502500      -2.0277500     -0.10625000       341.36300       1.9384732     0.016293184
       403.99998       288.46980       98954.401       14047.315       3.0597500      -2.1735000      0.16750000       341.45700       1.8458041     0.017487449
       408.99999       288.44989       98946.791       13994.142       3.2687500      -1.6435000      0.14100000       341.46300       1.8235263     0.017504517
       414.00001       288.41485       98930.147       13873.019       4.4512500      -2.0307500     -0.59625010       341.28500       1.8413274     0.017063037
       418.99998       288.39371       98918.909       13796.977       4.0550000     -0.77875010     -0.13125000       341.35600       1.8337161     0.017411485
       424.99999       288.38497       98904.466       13732.310       3.8560000      -1.0107500      0.11700000       341.51000       1.8119485     0.016676846
       430.00000       288.39619       98902.079       13713.967       3.7717500      -1.1585000     0.067000000       341.35100       1.8656153     0.014645076
       434.99997       288.44786       98910.163       13753.728       3.9510000      -1.2922500     -0.15575000       341.35200       1.7829710     0.019109519
       439.99999       288.45650       98915.451       13765.694       4.1395000      -1.2967500    -0.065500010       341.42200       1.8837335     0.015917822
       445.00000       288.45564       98930.753       13791.733       3.9027500     -0.38075000      0.24625000       341.28700       1.9176097     0.019421469
       449.99997       288.45453       98938.477       13813.658       3.5095000     -0.82900010     -0.37325000       341.48900       2.6693667     0.017194271
       454.99999       288.39573       98936.607       13800.056       3.6180000     -0.87875000     -0.74100010       341.32700       2.3177155     0.021986256
       460.00000       288.38857       98940.745       13821.127       3.2715000      -1.7445000     -0.21550000       341.48600       1.8512678     0.019719099
       465.00001       288.43361       98950.022       13884.144       2.9730000     -0.68900000     -0.23100000       341.29300       2.4517432     0.015543556
       469.99999       288.45374       98951.801       13921.489       4.0042500     -0.51600000     -0.31800000       341.45700       3.0110230     0.015588686
       475.00000       288.49003       98955.626       13963.915       3.5012500      0.19900000      0.62800000       341.41000       4.1065690     0.015404948
       480.00001       288.50897       98951.971       13996.276       3.6705000      0.71175000      -1.1837500       341.47300       3.1849060     0.017755270
       484.99998       288.50019       98933.152       14007.937       3.1185000     -0.55825000      0.19375000       341.49500       2.8679652     0.016501817
       490.00000       288.50034       98922.215       14020.393       4.1242500      -1.4412500     -0.14025000       341.32900       3.1849158     0.015907903
       495.00001       288.50026       98908.309       14033.555       3.1370000      0.19625000      0.96400000       341.54800       3.8388452     0.016956308
       499.99998       288.50037       98901.927       14041.277       4.3112500      0.82475010     -0.54325000       341.38000       2.5590616     0.016228549
       505.00000       288.50006       98904.650       14045.058       2.8045000     -0.88950000      0.23150000       341.47100       2.7458825     0.015385671
       511.00000       288.50011       98904.915       14037.013       2.5075000     -0.84275000     -0.10375000       341.63600       6.5724291     0.018890867
       515.99998       288.48669       98905.971       13999.875       2.3545000     -0.85400000      0.15525000       341.63600       3.6255700     0.019669187
       520.99999       288.50058       98911.844       14005.811       2.3050000      -1.5100000     0.080750000       341.63900       2.5851568     0.015637989
       526.00000       288.53785       98921.504       14022.419       3.1412500      -1.2997500      0.51425000       341.55500       2.3904164     0.017046992
       530.99998       288.55792       98927.471       14048.282       2.1777500     -0.28050000      0.47175000       341.66200       2.4351850     0.016225026
       535.99999       288.59515       98936.359       14118.622       1.9232500      -1.3932500     0.075500000       341.48500       2.5503684     0.015490911
       541.00000       288.61173       98944.090       14163.375       4.1330000      -1.3285000      0.58550000       341.37300       1.9901444     0.016904258
       545.99998       288.59981       98950.656       14186.855       4.2327500      -1.6307500      0.10050000       341.32000       1.8819272     0.014203042
       550.99999       288.59965       98951.943       14227.693       5.1822500      -2.4930000     -0.35875000       341.31900       1.8721050     0.014825627
       556.00000       288.61409       98953.315       14307.308       3.4855000     -0.39325000     -0.37225000       341.45400       1.8549747     0.016223654
       560.99997       288.60042       98951.171       14320.977       2.9567500     -0.75950000      0.53300010       341.72300       1.8707613     0.015201532
       565.99999       288.53633       98939.990       14282.057       3.9870000      -2.2952500     -0.28725000       341.30500       1.9416272     0.020056090
       571.00000       288.54408       98931.934       14289.737       3.7855000      -1.6677500     -0.33500000       341.41400       2.3507490     0.019188093
       575.99997       288.59468       98924.194       14292.036       1.9667500      -1.2982500    -0.038250000       341.68300       2.5124336     0.020127496
       580.99999       288.60476       98917.147       14274.960       2.1402500     -0.61500000      0.16125000       341.75800       2.4507112     0.016318503
       586.00000       288.65236       98899.816       14287.653       2.3482500     -0.92875000      0.38300000       341.49900       2.0101395     0.017926450
       591.00001       288.66450       98902.968       14278.756       2.6655000      -1.5172500     -0.29225000       341.64800       2.1149052     0.015120346
       595.99999       288.60498       98923.582       14206.594       2.1867500      -1.5217500      0.19125000       341.55600       2.0666659     0.016519055
       601.99999       288.58697       98936.040       14178.313       3.4957500      0.47700000      0.43275000       341.65100       1.9420550     0.014886585
