MIRICO/SHELL project - Processed LDS file generated on
Thu Jul 27 15:18:28 2017
Time stamp for record start
05/12/2017  14:02: 6.0001
Nb of points in the record
         547
Beam position index
       7.0000000
Beam angle (degrees)
       19.274000
Open Path length (m)
       33.730000
****************** Temporal data record ************************
Elapsedtime_sec Temp_K Press_Pa Humidity_ppmv WindX_m/s WindY_m/s WindZ_m/s Speedofsound_m/s CH4vmr_ppmv CH4vmrerror_ppmv  
      0.00000000       288.64843       98931.263       13829.423       5.3442500      -2.9025000     -0.49375000       341.38100       2.1004405     0.029603915
       4.9999729       288.64194       98940.122       13836.943       4.4292500      -1.5665000     0.024750000       341.60900       2.2468015     0.031796967
       9.9999860       288.65174       98948.725       13862.700       4.2412500      -2.2385000     0.051500000       341.55500       2.1525854     0.019825749
       14.999999       288.64300       98945.984       13873.137       4.0927500      -1.9135000     -0.31525000       341.35600       2.1727435     0.026171630
       20.000012       288.64444       98944.069       13892.999       4.9622500      -1.8807500     -0.20425000       341.31100       2.2742593     0.031848188
       25.999980       288.68203       98955.040       13950.118       3.3075000      -1.8812500     -0.34300000       341.51700       2.1369818     0.037661799
       30.999993       288.71236       98951.814       13994.025       2.3590000     -0.51900010    -0.078000000       341.44900       2.1987046     0.038240921
       36.000006       288.75173       98929.601       14047.319       2.3625000    0.0072500000     -0.29350000       341.54600       2.1906408     0.019563185
       40.999979       288.75832       98920.307       14066.948       5.4105000      -1.6732500     0.069000010       341.50200       2.1555488     0.023728275
       45.999992       288.75671       98908.990       14074.045       4.0685000      -1.4097500      0.24500000       341.44600       2.2336179     0.034881008
       51.000005       288.75273       98906.839       14079.864       4.5575000      -1.5417500      0.34475000       341.53400       2.0202644     0.022961293
       55.999978       288.70558       98914.217       14044.825       4.4435000      -1.0950000      0.31000000       341.40000       2.2787181     0.029339008
       60.999991       288.68961       98922.364       14038.184       5.0525000      -1.0237500    -0.049250000       341.43200       2.1990657     0.028971592
       66.000004       288.71322       98943.087       14065.787       3.3350000      -1.3810000     0.076500010       341.44400       2.1930467     0.036062512
       70.999977       288.69918       98949.544       14061.220       5.1227500    -0.011000000      -1.3012500       341.42300       2.1709533     0.022922619
       75.999990       288.64950       98952.231       14022.422       3.2687500     -0.27525000      0.38450000       341.52200       2.1558468     0.024269078
       81.000003       288.64329       98951.714       14028.557       3.3137500     -0.59425000      0.27500000       341.56000       2.1670447     0.036950243
       85.999976       288.65632       98941.199       14062.924       2.5762500     -0.37025000     -0.18625000       341.53200       2.0281635     0.022974585
       90.999989       288.64632       98931.808       14063.032       2.1260000     -0.76800000      0.52050000       341.70500       2.1141113     0.028610897
       96.000002       288.65706       98918.247       14079.158       2.7612500     -0.32375000     -0.24750000       341.66300       2.1154306     0.021621271
       100.99998       288.65325       98912.120       14078.824       2.9865000     -0.34050000      0.36925000       341.68400       2.0651766     0.023025690
       105.99999       288.60497       98901.488       14022.850       2.7755000      -1.9282500      0.82825010       341.56000       2.0033467     0.029449761
       111.00000       288.58896       98902.846       14007.668       3.5530000      -1.8835000      0.51550000       341.44400       2.0068008     0.021409885
       117.00001       288.61043       98922.834       14039.971       2.9375000      0.66375010      0.60425000       341.49200       2.0968985     0.033106753
       121.99998       288.59385       98930.244       14018.431       4.9540000      -2.4200000      0.10125000       341.36200       2.0120703     0.030102234
       127.00000       288.55723       98940.227       13976.178       4.7445000      -1.6332500      0.14775000       341.36300       2.2391492     0.032285461
       132.00001       288.53730       98944.442       13940.223       4.6327500    -0.025250000     0.033000000       341.48200       2.0747379     0.017863358
       136.99998       288.48972       98943.693       13858.740       6.0235000      -3.1125000      0.14500000       341.20900       2.1051126     0.028921767
       141.99999       288.49235       98938.790       13837.786       6.2887500      -2.7532500     -0.18625000       341.22000       2.0305573     0.024487606
       147.00001       288.55350       98927.848       13868.036       4.5932500      -1.4177500     0.054500000       341.41600       2.1530501     0.023060572
       151.99998       288.55745       98921.938       13857.724       4.4705000      -1.9180000     -0.71575000       341.30400       2.0722260     0.030428174
       156.99999       288.55857       98910.779       13853.734       4.5822500     -0.74875000      0.57350000       341.46100       2.2408075     0.031441900
       162.00001       288.55228       98906.789       13843.665       5.8545000      -1.3620000     -0.64925000       341.40000       2.1055214     0.037555033
       166.99998       288.50084       98907.875       13797.897       5.5787500     -0.39700000     0.048750000       341.30400       2.0920361     0.031785316
       171.99999       288.48676       98911.039       13790.725       4.7335000     -0.50150000    -0.077750000       341.33000       2.0131925     0.020265343
       177.00001       288.52221       98917.565       13841.310       5.7002500     -0.93625000     -0.57650000       341.26900       2.0284757     0.026926895
       181.99998       288.49001       98923.167       13810.069       3.8180000      -1.3692500      0.85775010       341.42900       1.9766440     0.021640065
       186.99999       288.41590       98934.449       13745.162       3.2735000     -0.90400000      0.52850000       341.50900       2.1323377     0.022906174
       192.00000       288.37615       98939.170       13688.670       3.3435000    -0.045750000      0.15875000       341.33700       2.0474190     0.024847675
       196.99998       288.30132       98941.379       13568.699       5.5190000     -0.51350000      0.11425000       341.24700       2.1887982     0.040753269
       202.99999       288.27181       98940.694       13505.604       5.6207500     0.078500000      0.32825000       341.31200       2.1600408     0.025450994
       208.00000       288.30052       98938.573       13497.090       4.7675000      0.30850000     -0.30425000       341.15800       2.1492174     0.029451305
       213.00001       288.30082       98931.013       13470.945       5.7745000      -1.2745000      0.11775000       341.18000       1.9757359     0.020310397
       217.99998       288.30004       98914.995       13453.646       5.9200000     -0.49175000      0.10325000       341.34000       2.0920334     0.017296073
       223.00000       288.29997       98909.734       13436.192       4.0237500     -0.18725000    -0.012250000       341.32900       2.1206202     0.030422017
       228.00001       288.29129       98902.062       13408.958       4.7250000      0.54225000      0.36950000       341.33000       2.0240582     0.022689513
       232.99998       288.31002       98904.428       13415.514       5.6790000     -0.92425010    -0.077250000       341.39300       2.0249720     0.031258183
       238.00000       288.34582       98917.005       13442.926       3.5527500      -1.1707500     -0.17750000       341.32900       2.1041718     0.033111278
       243.00001       288.36555       98927.599       13463.353       4.5385000      -2.8332500     -0.23625000       341.27300       2.3142020     0.045897954
       247.99998       288.40306       98944.244       13502.596       4.4592500      -1.3037500      0.33825000       341.39000       2.0544468     0.028555252
       253.00000       288.41419       98952.462       13532.168       4.9287500     -0.16675000     -0.38325000       341.35100       2.0886866     0.037015959
       258.00001       288.40009       98962.942       13546.917       4.4165000      -1.1402500     -0.25750000       341.42100       2.1262443     0.029025491
       262.99998       288.40009       98962.681       13589.231       5.3270000     -0.22100000     -0.79600010       341.40500       1.9404342     0.015523461
       267.99999       288.39112       98953.684       13648.808       5.7827500     -0.20525000     -0.48375000       341.25800       2.1461414     0.030911025
       273.00001       288.40967       98944.114       13703.432       5.0332500      -2.1875000     -0.78850000       341.28100       2.1560324     0.029988346
       277.99998       288.45481       98926.651       13793.001       3.7110000      -1.2715000      0.39775000       341.36400       2.0855409     0.041023514
       282.99999       288.45615       98916.550       13803.308       2.9137500     -0.42125000     0.076750000       341.50600       2.0145945     0.016328414
       288.00001       288.45790       98901.939       13778.049       5.4307500      -3.3565000      0.19700000       341.19900       2.1653872     0.043163287
       293.99997       288.44545       98903.262       13751.259       4.1347500      -1.0895000       1.5795000       341.27100       2.1041951     0.022764813
       298.99999       288.38825       98914.242       13673.080       4.3185000     0.036250000      0.23650000       341.41300       2.1378698     0.035725742
       304.00000       288.43034       98925.965       13694.116       6.0487500     -0.85875000     0.054000000       341.19200       2.1269951     0.029307093
       308.99997       288.45049       98936.148       13691.139       4.0970000     -0.44450000      0.92750010       341.32300       2.1298714     0.032401983
       313.99999       288.50073       98944.887       13697.413      0.55275010      -1.5707500       1.2997500       341.42300       2.1593733     0.034600705
       319.00000       288.51305       98950.954       13685.374       4.0005000     0.019500000     -0.69475000       341.27000       2.1072542     0.022471249
       324.00001       288.45482       98961.738       13603.109       4.0372500     -0.18025000      0.11425000       341.44300       2.0412739     0.024259723
       328.99999       288.44350       98963.349       13589.205       4.1957500     -0.55875000     -0.60350000       341.23500       2.1927773     0.038169557
       334.00000       288.44447       98958.794       13604.797       4.9747500      -1.4852500     -0.22000000       341.27100       2.3520184     0.058349727
       339.00001       288.44951       98946.888       13646.581       4.1785000      -1.0070000     0.030750000       341.32700       2.1415286     0.023228742
       343.99998       288.43963       98936.520       13669.157       5.5025000      -1.8687500     0.079500000       341.22500       2.1066609     0.024659755
       349.00000       288.44989       98918.682       13727.406       3.4307500      -1.1807500   -0.0065000000       341.15600       2.1405583     0.021029412
       354.00001       288.43119       98910.297       13739.743       3.5602500      -2.7800000     -0.39975000       341.21200       1.9852443     0.026777956
       358.99998       288.43862       98907.666       13787.516       4.0505000      -2.3322500     0.045250000       341.31000       2.1127200     0.026363542
       364.00000       288.53041       98911.704       13935.502       2.9627500     -0.85900000      0.31825000       341.49300       2.3580736     0.040358947
       369.00001       288.56256       98918.243       14012.951       4.2342500      -2.6500000     -0.42675000       341.29700       2.1022187     0.034584789
       373.99998       288.57007       98928.477       14063.066       2.6167500     -0.46175000      0.33900000       341.58600       2.1223060     0.027685402
       379.00000       288.55750       98946.248       14099.391       4.9152500      -1.3487500     -0.61475000       341.37900       2.1634139     0.023979094
       385.00000       288.51041       98957.319       14073.599       3.9865000      -1.7022500    -0.012000000       341.18300       2.1306069     0.030771836
       389.99998       288.49184       98963.024       14071.701       4.3150000      -1.9752500     0.066000000       341.37300       2.1394213     0.021001158
       394.99999       288.51379       98964.433       14120.684       4.9167500      -1.4142500     -0.14425000       341.28800       2.2283693     0.046339324
       400.00000       288.50251       98961.056       14101.726       3.9857500      -2.2625000      0.10700000       341.26800       2.1335145     0.030147632
       404.99998       288.46582       98953.075       14038.067       3.2340000     -0.88250010     -0.32700000       341.53900       2.2601121     0.047019204
       409.99999       288.44591       98944.975       13981.430       3.7925000      -2.2585000      0.14125000       341.40600       2.2001082     0.040884240
       415.00000       288.40963       98927.702       13855.869       3.7842500      -1.9500000      0.26650000       341.33700       1.9602294     0.034002824
       419.99997       288.39097       98916.957       13784.672       3.2830000      -1.4817500   -0.0042500000       341.35400       2.0960747     0.023873937
       424.99999       288.38497       98904.466       13732.310       3.3327500     -0.74800000      0.53350000       341.36600       2.1933687     0.025132661
       430.00000       288.39619       98902.079       13713.967       3.9517500      -1.7582500     -0.32000000       341.38700       2.1784393     0.032997699
       434.99997       288.44786       98910.163       13753.728       3.6530000      -1.1965000      0.17025000       341.32900       2.1001200     0.028614485
       439.99999       288.45650       98915.451       13765.694       4.1600000      -1.0910000     -0.23200000       341.41900       2.1179243     0.029356590
       445.00000       288.45564       98930.753       13791.733       4.2450000      0.99700000    -0.035750000       341.31800       2.0750390     0.019653064
       449.99997       288.45453       98938.477       13813.658       3.3027500     -0.92950000     -0.41825000       341.48500       2.1321944     0.042213589
       454.99999       288.39573       98936.607       13800.056       3.5857500     -0.59675000     -0.18525000       341.38500       2.3621826     0.031837084
       460.00000       288.38857       98940.745       13821.127       3.2325000      -1.6947500    -0.040500000       341.15800       2.1875919     0.038742730
       465.00001       288.43361       98950.022       13884.144       3.0690000      -1.0377500     -0.33275000       341.32100       1.9609977     0.034152468
       469.99999       288.45374       98951.801       13921.489       3.8602500     -0.29150000      0.15825000       341.47200       2.1840136     0.051796270
       475.99999       288.49481       98955.393       13971.213       3.5907500      0.53325000      0.19000000       341.30600       2.9404622     0.024364250
       481.00001       288.51126       98950.493       14001.506       2.0100000      -1.0367500     -0.10950000       341.56500       3.7651442     0.035008132
       485.99998       288.50022       98930.852       14010.633       3.5980000     -0.22975000     0.037250000       341.45900       3.6009059     0.029078366
       490.99999       288.50037       98920.196       14022.576       4.0552500     -0.36150000      0.13175000       341.37800       3.8384972     0.031145240
       496.00001       288.50028       98906.638       14035.513       3.6540000       1.1537500      0.89050010       341.57200       7.8790557     0.032116403
       500.99998       288.50040       98901.242       14042.201       3.5210000     -0.18775000      0.50475000       341.46300       3.3188666     0.027600421
       505.99999       288.50006       98904.570       14044.399       3.0365000      -1.1942500      0.54925000       341.42900       5.5673045     0.036761898
       511.00000       288.50011       98904.915       14037.013       2.2520000     -0.39450000      0.70800000       341.69400       8.6099630     0.032515642
       515.99998       288.48669       98905.971       13999.875       1.9620000     -0.99200000     0.032250000       341.59400       6.1941863     0.030232009
       520.99999       288.50058       98911.844       14005.811       2.7647500      -1.6562500     -0.40675000       341.53900       3.0725430     0.030238967
       526.00000       288.53785       98921.504       14022.419       3.9100000      -1.0740000      0.14125000       341.57600       2.7899950     0.031783750
       530.99998       288.55792       98927.471       14048.282       2.1665000     -0.59725000    -0.022250000       341.68400       2.9222577     0.024361445
       535.99999       288.59515       98936.359       14118.622       1.6485000      -1.4085000      0.14425000       341.73600       2.6310523     0.025525736
       541.00000       288.61173       98944.090       14163.375       4.2485000      -2.4232500    0.0045000000       341.46800       2.5499299     0.033986924
       545.99998       288.59981       98950.656       14186.855       4.2290000      -2.1445000     0.064250000       341.20900       2.1406497     0.032424742
       550.99999       288.59965       98951.943       14227.693       3.9740000      -1.8400000     -0.72750000       341.30500       2.2062787     0.039101111
       556.00000       288.61409       98953.315       14307.308       2.7747500     -0.81525000      0.44075000       341.45900       2.1552019     0.038306728
       560.99997       288.60042       98951.171       14320.977       2.4170000     -0.22100000      0.71525000       341.66000       2.0052114     0.022907077
       566.99998       288.53587       98938.376       14283.362       4.6767500      -2.0130000    -0.027250000       341.42100       2.2056036     0.029739160
       572.00000       288.54864       98930.328       14291.618       3.7415000      -1.5125000      0.16000000       341.46800       2.4856820     0.022934200
       577.00001       288.59673       98922.778       14288.636       2.5232500     -0.56750010    -0.058000000       341.59900       2.4423040     0.027428710
       581.99998       288.60672       98915.748       14271.521       1.5052500     -0.35775000      0.22025000       341.69800       2.8939494     0.030803095
       586.99999       288.65676       98899.658       14287.282       2.2135000      -1.3877500   -0.0030000000       341.54800       2.5544158     0.029387740
       592.00001       288.66397       98904.780       14274.867       2.0777500     -0.80975000     -0.22275000       341.54400       2.1378344     0.026088720
       596.99998       288.60075       98925.536       14200.085       2.2645000      -1.2665000      0.48100000       341.62100       2.5152541     0.035152437
       601.99999       288.58697       98936.040       14178.313       3.6770000    -0.082500000     -0.43450000       341.73600       3.0348271     0.032639691
