MIRICO/SHELL project - Processed LDS file generated on
Fri Jul 14 23:54:53 2017
Time stamp for record start
05/11/2017  14:23:53.0000
Nb of points in the record
         617
Beam position index
       1.0000000
Beam angle (degrees)
      -18.435000
Open Path length (m)
       34.890000
****************** Temporal data record ************************
Elapsedtime_sec Temp_K Press_Pa Humidity_ppmv WindX_m/s WindY_m/s WindZ_m/s Speedofsound_m/s CH4vmr_ppmv CH4vmrerror_ppmv  
      0.00000000       291.83509       98612.933       14035.736       3.5060000       1.2092500     0.038750000       343.37600       2.0614676     0.016493213
       5.0000131       291.84755       98618.859       13996.320       3.6352500       2.2110000      0.29150000       343.80100       1.9654007     0.014859149
       9.9999860       291.85084       98628.960       13948.861       4.0422500       3.2670000      0.46925000       343.12900       1.9736461     0.014319665
       14.999999       291.92481       98634.693       13939.524       3.2552500       3.0437500     0.075000000       343.62600       1.9977973     0.014189686
       20.000012       292.06371       98634.516       13970.673      0.87525000       2.5565000      0.44150000       343.97300       1.9751307     0.016437200
       24.999985       292.23359       98636.558       14032.886       3.0657500       1.9310000      0.26075000       343.79600       2.0244570     0.014802392
       29.999998       292.51678       98641.330       14128.208       2.6707500       2.5905000     -0.30725000       342.79100       2.1092744     0.016743815
       35.000011       292.64237       98641.129       14209.292       2.1907500       5.5017500      -1.2905000       343.21700       1.9446303     0.020829550
       39.999984       292.82196       98638.197       14371.285       2.4957500       2.6257500      0.97325000       343.81400       1.9989469     0.016537879
       44.999997       292.77527       98632.967       14418.573       1.8352500       4.3485000     -0.49325000       343.32600       1.8068870     0.028385510
       50.000010       292.44872       98623.156       14383.746       2.1975000       3.4652500     0.080750000       343.41000       1.8932055     0.032836480
       54.999983       292.31617       98616.239       14372.237       3.5087500       2.6002500    -0.065500010       343.06700       1.9745187     0.014487283
       60.999991       292.05333       98605.139       14295.344       3.1475000       2.2060000     -0.50325000       343.18500       2.0442348     0.015127462
       66.000004       292.04397       98600.872       14276.132       1.6710000       2.7752500     -0.48850000       343.23700       2.0154017     0.015148861
       71.000017       292.21192       98599.835       14285.234      0.97475000       2.7645000      0.50950000       343.22200       2.0251225     0.014551727
       75.999990       292.32888       98598.630       14280.362       2.9630000       1.2070000      0.72875010       343.93500       2.0192839     0.015791073
       81.000003       292.51565       98599.314       14265.982       3.1402500       3.5582500     -0.61800000       343.59300       1.9625240     0.022246355
       86.000016       292.68456       98601.191       14285.150       2.2220000       2.6695000      0.93600000       343.59300       1.9909957     0.013576060
       90.999989       292.92961       98603.169       14340.087       3.5680000       4.2112500     -0.20750000       342.76300       2.0360099     0.015219442
       96.000002       292.96753       98608.836       14329.550       2.7560000       2.5475000     -0.23450000       343.80000       1.9729287     0.017134620
       101.00002       292.94629       98618.878       14313.406       2.2897500       2.6072500     -0.39100000       343.60400       2.0810950     0.015922395
       105.99999       292.87525       98625.824       14294.965       2.9455000       2.3087500     -0.69675000       343.60800       1.9642426     0.019987835
       111.00000       292.63586       98635.507       14239.615       3.4107500       3.6260000     -0.41375000       343.46000       1.9762575     0.013519831
       116.00001       292.47505       98639.806       14175.977       5.2417500       2.4747500     -0.42650000       343.17600       2.0877948     0.015998360
       120.99999       292.31987       98641.365       14126.677       3.8577500       2.8222500      0.12150000       342.53000       2.0429871     0.015080319
       126.00000       292.19788       98640.588       14053.587       3.1332500       1.9392500   -0.0077500000       342.97300       1.8815576     0.026233715
       131.00001       292.04003       98635.561       13925.114       2.6007500       1.4170000      0.94150010       344.16700       2.1474703     0.020672229
       135.99999       291.97428       98633.566       13850.329       3.8347500      0.67100000     -0.73800000       343.37700       2.0737196     0.018704524
       141.00000       291.99694       98631.843       13793.992       5.1090000       2.7702500    -0.016000000       342.77400       2.0316220     0.013481490
       147.00001       291.98486       98625.853       13757.261       1.8250000       2.0517500      0.52350000       343.28500       2.0428004     0.015903306
       152.00002       292.00047       98621.218       13746.312       3.3072500       1.0385000     -0.21100000       343.57900       2.0484341     0.016281407
       156.99999       292.00059       98615.055       13737.306       2.5355000       2.6535000    -0.098750000       343.53600       2.0109622     0.014839910
       162.00001       291.99419       98603.991       13751.716       4.1645000       3.8257500      0.12550000       343.11300       1.9602815     0.014911340
       167.00002       292.01567       98600.276       13746.627       2.6760000       1.9590000      0.67875000       343.87600       2.0931165     0.017083892
       171.99999       292.04446       98599.021       13766.320       2.1462500       2.5482500      0.59575000       342.90500       1.9869594     0.016997273
       177.00001       292.14541       98600.385       13847.619       3.4570000       2.4992500     -0.39175000       343.23200       2.0439049     0.014056540
       182.00002       292.16834       98604.108       13881.623       2.5205000       3.6787500      0.27800000       343.39400       1.9356602     0.017098559
       186.99999       292.11029       98613.311       13860.658       1.6487500       2.1477500      0.60000000       343.50800       1.9267048     0.017992264
       192.00000       292.10046       98620.268       13899.112       2.6155000       2.2240000    -0.091750000       342.76100       1.8585820     0.021200929
       197.00002       292.09062       98627.211       13954.359      0.95950010       1.7120000      0.16050000       343.74000       1.9841300     0.016737295
       201.99999       292.03665       98636.565       14004.412       1.2655000       2.8610000     -0.34250000       343.28200       1.9139740     0.024103342
       207.00000       292.03946       98640.367       14048.153      0.62750010       1.6897500      0.80500010       343.37000       2.0301701     0.019560225
       212.00002       292.10007       98641.412       14147.928       1.7652500       3.0002500     -0.18800000       343.06200       1.9789545     0.017810508
       216.99999       292.13042       98637.188       14138.749       1.8395000       2.2840000      0.19200000       343.33900       2.0179215     0.016902808
       222.00000       292.15067       98635.159       14134.400       2.6747500       2.3600000     -0.42350000       343.14600       1.9756425     0.019343828
       227.00002       292.20031       98636.240       14139.720       2.2292500       3.0097500     -0.11350000       342.80900       2.0264930     0.016857754
       231.99999       292.21267       98631.481       14127.825       2.5795000       1.7247500     -0.46175000       342.92400       1.9951536     0.016996415
       238.00000       292.18119       98623.222       14083.289       1.2880000       1.5132500    -0.097250010       343.99600       1.9827389     0.014856167
       243.00001       292.14965       98614.907       14050.500       2.0305000       2.0002500      0.14600000       342.83800       2.0602384     0.017024578
       247.99998       292.06217       98592.298       13995.121       2.0177500       2.4255000    -0.013250000       343.04400       1.9986191     0.014887237
       253.00000       292.03476       98586.077       13971.107       1.1190000       2.0155000      0.52325000       344.18900       2.0626095     0.015676273
       258.00001       292.05900       98589.803       13983.344       1.8627500       2.7455000     0.069250000       342.98900       1.9833654     0.015229945
       262.99998       292.04938       98594.302       13969.305      0.74800000       2.3152500      0.17225000       344.16100       2.0247011     0.014689143
       267.99999       292.05622       98612.939       13954.240       1.4940000       2.3755000    -0.094250000       342.35800       2.0533205     0.018139635
       273.00001       292.05478       98623.608       13943.021      0.82750000       2.5825000     0.016500000       342.93200       1.9536214     0.017907305
       278.00002       292.00979       98633.236       13899.646       1.0200000      0.92425010      0.22325000       343.67500       2.0336509     0.016010258
       282.99999       291.99106       98637.877       13887.526       1.3845000       2.2735000     0.022500000       343.87300       1.9400149     0.016197072
       288.00001       292.00038       98638.963       13905.352      0.95325010       2.6640000      0.48300000       343.44700       2.0203987     0.013811359
       293.00002       292.00049       98636.534       13920.016       1.1085000       2.5642500      0.15125000       343.42900       2.0318853     0.015208759
       297.99999       292.01431       98624.371       13954.743       2.0420000       3.2767500     -0.33225000       342.46700       2.0293412     0.016563787
       303.00001       292.00307       98618.401       13973.658       1.7717500       2.6445000     -0.22275000       343.63500       1.9668406     0.014344491
       308.00002       291.97994       98616.488       13980.640       2.1962500       3.0020000     -0.39575000       342.64300       2.0576140     0.014027916
       312.99999       291.94889       98609.376       13996.058       3.6217500       2.8670000     -0.27950000       342.92500       2.0796082     0.017071174
       318.00001       291.88997       98597.126       14033.458       2.9612500       2.9885000     -0.63300000       343.05900       2.0748295     0.015915831
       323.00002       291.84054       98593.393       14025.970       2.4317500       2.3560000      0.40675000       343.42800       2.0186258     0.015432191
       328.99999       291.74057       98587.831       13976.198       1.2950000      0.64050000     0.062250000       343.98900       2.0055717     0.017013357
       334.00000       291.73220       98588.396       13958.077      0.69525000      0.50100000       1.1012500       343.80200       2.0272670     0.014644143
       339.00001       291.79398       98600.419       13929.182       1.0557500       2.5782500     -0.16775000       343.38000       2.0404975     0.016542147
       343.99998       291.80382       98608.459       13889.407       1.5992500       1.7145000    -0.084250000       343.83700       1.9848019     0.015657828
       349.00000       291.85192       98616.245       13856.795       1.3707500       3.4317500     -0.47550000       343.76700       2.0320678     0.015168104
       354.00001       291.86460       98623.232       13837.367       1.8107500       2.5865000    -0.061500000       343.50500       2.0091616     0.014977874
       358.99998       291.80494       98634.406       13785.854       1.6810000       1.5915000      0.40975000       344.40300       1.9641937     0.014278198
       364.00000       291.78890       98638.193       13775.574       2.4437500      0.85125010      0.38900000       344.17400       1.9428985     0.020422716
       369.00001       291.79992       98638.645       13817.103      0.25900000       1.9402500      0.54375000       344.86600       2.0548658     0.015465286
       373.99998       291.79988       98635.617       13842.760       1.3892500       3.4370000      -1.0320000       343.49700       1.9999169     0.015705064
       379.00000       291.81342       98624.613       13889.462      0.98825000       3.3105000      -1.0287500       343.03400       2.0118141     0.015372166
       384.00001       291.79953       98617.554       13902.077      0.63350000       1.5950000    -0.084500010       343.96300       1.9928833     0.015786153
       388.99998       291.71099       98607.610       13862.500       2.5797500       3.2747500     -0.53400000       342.84600       2.0809510     0.017707663
       394.00000       291.74625       98602.358       13900.554       1.3940000       2.2022500      0.12500000       343.31200       2.0181311     0.018999899
       399.00001       291.85914       98600.899       13967.615       1.1730000       1.4887500      0.14725000       343.96100       2.0174392     0.014596225
       403.99998       291.92297       98599.269       14023.780       1.8782500       2.7410000      0.18750000       343.55100       2.0439344     0.015242635
       408.99999       292.06716       98598.905       14144.757       2.1837500       1.0435000       1.1427500       344.02300       2.0837993     0.019002292
       414.00001       292.14522       98600.227       14223.484       2.2590000       4.1042500     -0.83025000       342.95600       2.0851038     0.015318876
       420.00002       292.12979       98602.092       14258.712       1.8485000       2.4297500     0.015250000       344.11300       2.0006752     0.015533055
       424.99999       292.16655       98607.415       14317.312       1.2965000       3.7450000     -0.87525000       343.01100       1.9757618     0.016268956
       430.00000       292.24105       98618.689       14411.375       2.9677500       2.4607500      0.18150000       343.25900       2.0998341     0.015659821
       435.00001       292.27493       98624.128       14453.366       2.1167500       3.5447500     -0.81425010       342.93800       2.1654410     0.016459304
       439.99999       292.31097       98632.363       14493.052       2.6365000       3.2035000      0.22900000       343.63000       2.0908747     0.016677161
       445.00000       292.30879       98631.860       14485.408       1.7885000       3.1865000    -0.069500010       343.16000       2.1126661     0.017405898
       450.00001       292.25772       98625.108       14410.469       1.5395000       2.8450000      0.35225000       343.13900       2.0220512     0.013910690
       454.99999       292.23782       98616.248       14377.633       1.3040000       2.2290000      0.23575000       343.58400       2.0894374     0.016679244
       460.00000       292.21199       98597.851       14347.309       1.3075000       2.1812500     -0.14025000       344.00200       2.1435871     0.017531156
       465.00001       292.18230       98589.111       14292.379      0.56400000       2.3872500      0.18300000       344.03800       2.0097815     0.013840805
       469.99999       292.18260       98576.995       14247.305      0.30450000       3.1825000      0.19350000       343.80900       2.0557835     0.015601476
       475.00000       292.12985       98577.813       14177.262       1.1225000       2.8472500      0.47300000       343.72800       2.0317828     0.014302316
       480.00001       292.03968       98596.162       14062.518     -0.32450000       1.1122500      0.78850000       344.04400       2.1717659     0.015132508
       484.99998       291.95307       98597.321       13974.156       1.5460000       1.1112500      0.36025000       343.84400       2.0759912     0.015665954
       490.00000       291.81536       98594.991       13873.128       3.5125000       2.6840000    -0.032000000       343.33100       2.0022783     0.014850762
       495.00001       291.74717       98596.365       13819.752       2.7677500       3.1865000     -0.51675000       343.23000       2.0352149     0.015034637
       499.99998       291.70137       98587.924       13776.071       2.6245000       2.5277500     -0.57675000       343.20000       2.1795316     0.018126589
       505.00000       291.67400       98589.460       13770.662       1.9022500       1.9505000     -0.48725000       343.34800       2.0833275     0.016752095
       511.00000       291.70086       98606.459       13826.478       2.3122500       2.6397500     -0.75575010       343.31100       2.1444846     0.023200200
       516.00002       291.70116       98608.842       13868.059       1.4507500      0.60425000      0.51125000       344.01800       2.1833239     0.016423800
       520.99999       291.70926       98607.568       13942.149       1.3585000       2.0940000   -0.0077500000       343.14000       2.5627344     0.017258172
       526.00000       291.69059       98602.899       13967.149       3.2572500       2.8220000     -0.10775000       343.55800       2.8121267     0.015130175
       531.00002       291.65329       98587.963       13967.565       2.6695000       1.8265000      0.12275000       343.30500       3.5433041     0.015125006
       535.99999       291.63324       98588.476       14000.167       1.8300000       1.2777500      0.62400000       344.10300       3.4796252     0.018281569
       541.00000       291.61501       98591.766       14039.773       1.9532500       1.1862500   -0.0035000000       343.30500       2.7334221     0.016755857
       546.00002       291.56684       98599.246       14031.363       2.6150000       1.1375000     -0.28775000       343.57800       2.4784543     0.014876009
       550.99999       291.50826       98620.424       14026.624       2.4120000       2.3422500     -0.16500000       343.13100       2.5252806     0.017136415
       556.00000       291.46856       98627.789       14007.529       2.2582500       1.8805000     -0.18800000       344.14700       4.8694131     0.017142122
       561.00001       291.39407       98630.921       13927.390       1.8460000       1.7635000    -0.088000010       343.45300       3.8579236     0.017388392
       565.99999       291.37174       98633.172       13890.750      0.49325000       1.2092500      0.36275000       344.25900       3.3148072     0.018015968
       571.00000       291.39175       98633.061       13884.318       1.5525000      0.74900000      0.22900000       344.38000       3.8605519     0.017728438
       576.00001       291.41085       98627.487       13867.999       1.4567500       2.5677500     -0.53800000       343.15100       4.9377812     0.018893202
       580.99999       291.44697       98617.948       13834.444       1.5907500       1.9222500     -0.23875000       343.12000       2.3622305     0.015947578
       586.00000       291.46713       98608.202       13830.089       1.7220000       2.0852500      0.39700000       343.87800       2.4361139     0.015207751
       591.00001       291.50323       98588.314       13849.778       3.6432500       1.8467500      0.92900000       343.51800       2.4125349     0.015742868
       595.99999       291.51445       98584.693       13862.885       4.2347500       1.8415000      0.17050000       343.00300       2.5319514     0.017175284
       601.99999       291.50047       98588.458       13886.004       3.2412500       2.0300000    -0.094500010       343.14300       4.2005604     0.017317784
