MIRICO/SHELL project - Processed LDS file generated on
Sun Jul 16 15:07:08 2017
Time stamp for record start
05/11/2017  14:23:53.0000
Nb of points in the record
         617
Beam position index
       2.0000000
Beam angle (degrees)
      -8.6230000
Open Path length (m)
       64.850000
****************** Temporal data record ************************
Elapsedtime_sec Temp_K Press_Pa Humidity_ppmv WindX_m/s WindY_m/s WindZ_m/s Speedofsound_m/s CH4vmr_ppmv CH4vmrerror_ppmv  
      0.00000000       291.83509       98612.933       14035.736       3.4595000       1.7750000      0.10900000       343.59800       1.9773674     0.011612843
       5.0000131       291.84755       98618.859       13996.320       2.6517500       2.5370000     0.011000000       344.56500       1.9861889     0.012287132
       9.9999860       291.85084       98628.960       13948.861       2.9930000       4.5947500     -0.62525000       343.51000       1.8693182     0.014426525
       14.999999       291.92481       98634.693       13939.524       2.9752500       2.3357500    -0.025750000       343.10800       1.9403873     0.012279010
       21.000007       292.09454       98634.922       13980.901       1.5782500       1.5902500      0.29650000       344.60400       1.9437966     0.012949727
       26.000020       292.27228       98636.970       14048.655       3.6150000       1.9697500     -0.17200000       343.00200       1.9339589     0.012513600
       30.999993       292.54590       98641.488       14143.479       2.4457500       1.3835000      0.55425000       342.91600       1.8988790     0.010873853
       36.000006       292.66148       98640.790       14226.954       2.3367500       5.2722500     -0.85175000       343.59500       1.9704087     0.010758037
       41.000019       292.82371       98637.348       14384.823       2.7542500       3.3817500     0.044500000       343.74900       1.9318128     0.011868253
       45.999992       292.74929       98631.625       14421.826       2.7900000       4.6235000     -0.46800000       342.55100       1.8400264     0.020334331
       51.000005       292.42123       98621.774       14382.918       2.2697500       3.1420000      0.24225000       343.88700       1.9456096     0.013465755
       56.000018       292.29113       98614.853       14367.752      0.57100000       2.5857500      0.33300000       343.64400       1.9237029     0.013111550
       60.999991       292.05333       98605.139       14295.344       2.9440000       2.1890000      0.58150010       343.57500       1.9498076     0.013271037
       66.000004       292.04397       98600.872       14276.132       1.7790000       2.4322500       1.0335000       343.85900       1.9288758     0.013246146
       71.000017       292.21192       98599.835       14285.234       2.4442500       3.5975000     0.028250000       343.18200       2.0607143     0.015126902
       75.999990       292.32888       98598.630       14280.362       1.8305000       2.7555000      0.38625000       344.07200       1.8864438     0.012877666
       81.000003       292.51565       98599.314       14265.982       2.2317500       3.4025000      0.39175000       344.26200       1.9720747     0.013469787
       86.000016       292.68456       98601.191       14285.150       1.5842500       3.0647500     -0.55925000       343.51200       1.9236150     0.012111249
       90.999989       292.92961       98603.169       14340.087       3.5380000       4.1122500     -0.57800000       342.36300       1.9570323     0.010566250
       96.000002       292.96753       98608.836       14329.550       3.2640000       1.8725000      0.16925000       343.88100       1.9274458     0.012985985
       101.00002       292.94629       98618.878       14313.406       2.6095000       1.2315000      0.81300000       343.68200       1.9409868     0.013764522
       105.99999       292.87525       98625.824       14294.965       2.8047500       2.2912500      0.62025000       343.66900       1.9571403     0.014312343
       112.00000       292.60379       98636.565       14227.624       2.8360000       1.8660000      0.74000000       344.83600       1.9614434     0.012826299
       117.00001       292.44274       98640.367       14162.156       3.7007500       1.7130000     -0.35775000       343.33500       2.0041205     0.019705449
       121.99998       292.29447       98641.412       14113.438       2.8592500       2.6400000     -0.38650000       343.05800       1.9059740     0.012936859
       127.00000       292.12945       98637.188       13997.124       3.7515000       2.2042500     -0.12900000       343.26100       2.0024741     0.015003075
       132.00001       292.02279       98635.159       13908.810       3.3395000       2.6017500     -0.59425000       343.28400       1.9106966     0.013412291
       136.99998       292.01479       98634.836       13833.923       3.6055000       1.2815000     -0.20275000       342.88900       1.8963059     0.011636921
       141.99999       291.99371       98630.970       13785.944       4.2975000       2.0720000     -0.57675000       342.67700       1.9159029     0.012871603
       147.00001       291.98486       98625.853       13757.261       1.7127500       1.1590000      0.70675000       343.58200       1.9659404     0.011264264
       152.00002       292.00047       98621.218       13746.312       2.5282500       1.6055000     -0.65325000       343.45500       1.8898292     0.011580692
       156.99999       292.00059       98615.055       13737.306       2.8545000       2.9137500     -0.37975000       343.46800       1.9528227     0.013604124
       162.00001       291.99419       98603.991       13751.716       5.2575000       3.7402500     -0.31250000       343.13800       1.9600106     0.013685354
       167.00002       292.01567       98600.276       13746.627       3.4845000       1.4555000     0.054500000       343.73500       1.9290679     0.013892762
       171.99999       292.04446       98599.021       13766.320       3.2960000       2.4720000     -0.25100000       343.54500       1.9244803     0.010345346
       177.00001       292.14541       98600.385       13847.619       3.1120000       2.6322500     0.027500000       342.75400       1.9360710     0.014486667
       182.00002       292.16834       98604.108       13881.623       2.6572500       2.4170000     -0.23425000       343.40500       1.9543056     0.014087102
       186.99999       292.11029       98613.311       13860.658       1.1095000       2.7762500       1.2707500       343.69700       1.9985785     0.012989799
       192.00000       292.10046       98620.268       13899.112       1.9750000       2.5427500      0.33050000       342.78100       1.9533182     0.010139601
       197.00002       292.09062       98627.211       13954.359      0.93175010       1.5157500     0.023500000       343.72700       1.9334697     0.010954467
       202.99999       292.03518       98637.525       14012.655       1.3420000       3.1660000     -0.74950000       343.17100       1.9716589    0.0098223300
       208.00000       292.07581       98640.618       14106.023       1.7112500       1.7455000     -0.38225000       343.46600       1.9725217     0.014809863
       213.00001       292.10613       98641.358       14155.307       1.7762500       1.5112500      0.53325000       343.60800       1.9292505    0.0096913218
       217.99998       292.13449       98636.779       14138.116       2.4400000       2.9515000     -0.70600000       343.23100       1.9395490     0.012055720
       223.00000       292.15468       98634.758       14133.174       3.1362500       2.5857500      0.25500000       343.40500       1.9869197     0.012067916
       228.00001       292.20476       98635.486       14138.399       2.9465000       2.8837500     -0.26000000       342.86900       2.0050460     0.014851410
       232.99998       292.21218       98630.233       14123.862       2.1620000       1.2757500      0.31250000       343.32200       1.8890202     0.010807298
       238.00000       292.18119       98623.222       14083.289       2.0035000       2.1320000      0.18525000       344.08800       1.9782142     0.010577972
       243.00001       292.14965       98614.907       14050.500       2.6035000       2.3732500     -0.28750000       342.68300       1.9614366     0.014307705
       247.99998       292.06217       98592.298       13995.121       2.4932500       2.4045000      0.28350000       342.89200       1.9023930     0.010022602
       253.00000       292.03476       98586.077       13971.107       2.0460000       1.9722500    -0.030250000       344.14300       1.9519613    0.0097227524
       258.00001       292.05900       98589.803       13983.344       1.6000000       2.6405000     -0.10350000       342.65400       1.9178660     0.013090096
       262.99998       292.04938       98594.302       13969.305      0.67975000       2.7260000     -0.11650000       343.22400       1.9261437     0.013614874
       267.99999       292.05622       98612.939       13954.240       1.5865000       2.5400000     -0.32000000       342.49500       1.9864025     0.011879048
       273.00001       292.05478       98623.608       13943.021      0.87050000       2.1627500     -0.35450000       342.66100       1.9350262     0.012942639
       278.00002       292.00979       98633.236       13899.646       1.2440000      0.64550000      0.15025000       343.24400       1.9556118     0.012741296
       282.99999       291.99106       98637.877       13887.526       1.3325000       1.9897500    -0.098500010       343.98400       1.9295536     0.012196888
       288.00001       292.00038       98638.963       13905.352      0.70100000       2.1855000      0.55575000       343.89000       1.9144409     0.011913043
       294.00001       292.00052       98635.584       13923.725       1.3182500       2.8577500      0.21275000       343.69400       1.8717833     0.011197666
       298.99999       292.01306       98623.076       13958.973       1.5345000       3.1322500   -0.0072500000       342.57100       1.9421166     0.012925890
       304.00000       291.99932       98617.359       13976.768       1.6385000       2.6200000     -0.22550000       343.51700       1.9938503     0.014094014
       309.00001       291.97472       98615.164       13983.707       2.1552500       2.7322500     -0.32675000       342.72700       1.9742213     0.013960287
       313.99999       291.94120       98607.807       13999.163       2.9525000       3.4150000     -0.52825000       342.84100       1.9478128     0.013548070
       319.00000       291.88008       98596.183       14033.550       3.1397500       2.9432500      0.20950000       342.80900       1.9163024     0.011802836
       324.00001       291.83066       98592.941       14022.096       1.3085000       2.5760000     -0.25775000       343.28200       1.9205935     0.010341880
       328.99999       291.74057       98587.831       13976.198       1.9275000       2.0737500      0.19675000       343.61900       1.9335082    0.0095221268
       334.00000       291.73220       98588.396       13958.077       1.9700000      0.60825000      0.45100000       343.77900       1.9331810     0.012687203
       339.00001       291.79398       98600.419       13929.182      0.84575000       2.4512500     -0.42300000       343.51700       1.9195905     0.013480387
       343.99998       291.80382       98608.459       13889.407       1.7017500       2.3515000     -0.26500000       343.68200       1.9929705     0.010103392
       349.00000       291.85192       98616.245       13856.795       1.8572500       3.0307500     0.018250000       343.55000       1.9650346     0.010042958
       354.00001       291.86460       98623.232       13837.367       1.0777500       3.1980000     -0.56350000       343.45000       2.1827818     0.014972024
       358.99998       291.80494       98634.406       13785.854      0.83350000       1.9420000      0.57000010       343.70200       2.6548888     0.015756979
       364.00000       291.78890       98638.193       13775.574       2.1100000       1.3937500    -0.093500000       344.27400       2.7325207     0.015094373
       369.00001       291.79992       98638.645       13817.103      0.23425000       1.9322500     -0.73925010       343.78200       2.4309745     0.012940132
       373.99998       291.79988       98635.617       13842.760       1.9500000       2.8420000     -0.33775000       343.40500       2.8592171     0.011732739
       379.99999       291.81166       98623.208       13893.090       1.2672500       3.2777500     -0.75875000       342.51000       2.6594616     0.013891930
       385.00000       291.79523       98616.132       13902.941      0.56550000       1.4635000      0.41950000       344.23200       3.0516201     0.012456524
       390.00002       291.71403       98606.358       13867.939       2.0337500       2.9347500      -1.2945000       343.05700       2.2815970     0.013016975
       394.99999       291.75932       98601.609       13911.432      0.79050000       2.5890000     0.059250000       343.17300       2.7505226     0.014903694
       400.00000       291.87100       98600.473       13977.573      0.96450010       1.6435000     -0.37075000       343.17300       2.3291866     0.010748002
       405.00002       291.93709       98599.094       14036.934       3.6322500       1.8260000      -1.4545000       343.25000       2.4577758     0.010913826
       409.99999       292.08572       98599.072       14162.007      0.99625000       2.6707500      0.11325000       344.38800       2.3836499     0.013067905
       415.00000       292.15641       98600.638       14236.960       1.5420000       3.3082500     -0.86625000       343.03500       2.9953888     0.014344699
       420.00002       292.12979       98602.092       14258.712      0.58225000       2.5052500     0.053250000       344.10500       2.6394787     0.010862353
       424.99999       292.16655       98607.415       14317.312       1.7477500       4.1865000     -0.71400000       342.66000       4.7114836     0.014821498
       430.00000       292.24105       98618.689       14411.375       2.7602500       3.3960000     -0.78825000       343.62300       4.0760574     0.012088936
       435.00001       292.27493       98624.128       14453.366       2.4367500       2.7640000     -0.83475010       343.13800       2.3819590     0.010271590
       439.99999       292.31097       98632.363       14493.052      0.91350010       2.6175000      0.28275000       343.38700       3.6436979     0.015010919
       445.00000       292.30879       98631.860       14485.408       1.0502500       3.8815000     -0.50425000       342.91900       3.0148361     0.011261367
       450.00001       292.25772       98625.108       14410.469       1.8060000       2.0760000     -0.29800000       343.15200       2.7942506    0.0098088344
       454.99999       292.23782       98616.248       14377.633      0.71625010       2.5107500      0.15300000       343.43800       2.1958783     0.010711684
       460.00000       292.21199       98597.851       14347.309     -0.80600010       2.1767500      0.94025000       343.95400       3.8759818     0.014209258
       465.00001       292.18230       98589.111       14292.379      0.83400010       1.6592500      0.49375000       343.92200       2.8023354     0.011623674
       471.00002       292.17411       98576.552       14234.777      0.83825000       3.1475000      0.34950000       344.03100       2.6403037     0.013035586
       475.99999       292.11622       98578.886       14161.043       1.2270000       3.0940000      -1.0767500       343.38200       2.6034965     0.012650174
       481.00001       292.02336       98596.693       14044.514      0.78100000       1.1020000       1.0740000       343.25500       3.1751795     0.014736574
       486.00002       291.93425       98597.104       13956.979       2.1365000       1.5700000     -0.30900000       342.77600       2.6900207     0.012119201
       490.99999       291.79963       98595.361       13860.593       2.9507500       3.0182500     -0.43600000       343.18600       3.3889324     0.014973515
       496.00001       291.73666       98596.496       13811.857       2.6975000       3.1285000    -0.075250010       343.48300       3.6540602     0.013064358
       501.00002       291.69393       98587.836       13772.450       2.4660000       2.5497500     -0.13350000       343.65500       2.9265782     0.013802546
       505.99999       291.67147       98590.358       13773.386       2.5212500       2.6207500     -0.16975000       343.50200       2.4026207     0.014326629
       511.00000       291.70086       98606.459       13826.478       2.6757500       1.9607500      0.15925000       343.82800       2.3328012     0.011622392
       516.00002       291.70116       98608.842       13868.059       1.4785000     0.092750010      0.17950000       344.26300       2.4654861     0.013903108
       520.99999       291.70926       98607.568       13942.149       1.9395000       1.4375000     -0.24475000       343.12900       2.3450604    0.0095194049
       526.00000       291.69059       98602.899       13967.149       2.7717500       3.6292500     -0.89050010       343.25800       4.9503122     0.012745100
       531.00002       291.65329       98587.963       13967.565       3.0127500       2.1537500     -0.18325000       342.90800       3.6369569     0.016410349
       535.99999       291.63324       98588.476       14000.167       3.2925000       1.0202500      0.10625000       343.59600       3.0235707     0.013925918
       541.00000       291.61501       98591.766       14039.773       1.8455000      0.40950000      0.59375000       344.12800       2.9189897     0.014578492
       546.00002       291.56684       98599.246       14031.363       1.6642500       2.4927500    -0.037250000       344.06000       2.4966395     0.015252531
       550.99999       291.50826       98620.424       14026.624       2.4120000       1.7217500      0.11250000       343.31900       3.8646195     0.011067771
       556.00000       291.46856       98627.789       14007.529       1.5240000       1.1622500     0.030250000       344.06800       2.6850361     0.014284256
       562.00001       291.38759       98631.572       13919.130       1.6070000      0.92325000      0.19850000       344.01500       3.8461136     0.011975142
       566.99998       291.37030       98633.320       13884.816       1.0260000       1.3902500     0.095750000       344.28400       2.6980828     0.010908272
       572.00000       291.39456       98632.246       13881.000      0.91075000      0.17000000      0.98125000       344.14500       3.4409734     0.015314366
       577.00001       291.43063       98624.015       13848.168      0.77150010       1.3057500      0.89325000       343.46500       4.1128442     0.016069991
       581.99998       291.45102       98616.191       13832.433       2.7130000       2.8722500     -0.76375000       342.93400       3.1548009     0.014858880
       586.99999       291.48539       98595.651       13842.561       2.8210000       1.7137500     -0.18675000       343.98700       2.2735598    0.0098473352
       592.00001       291.50645       98587.097       13852.035       3.0857500       1.8277500     -0.43275000       343.57300       2.4160534     0.013041110
       597.00002       291.51522       98584.709       13866.053       3.4440000       2.6422500     -0.14175000       343.58000       3.4647451     0.014967639
       601.99999       291.50047       98588.458       13886.004       2.3110000       1.9567500     -0.13525000       343.11600       3.5751049     0.012336393
