MIRICO/SHELL project - Processed LDS file generated on
Mon Jul 17 15:53:00 2017
Time stamp for record start
05/11/2017  14:23:55.0000
Nb of points in the record
         617
Beam position index
       7.0000000
Beam angle (degrees)
       19.300000
Open Path length (m)
       33.730000
****************** Temporal data record ************************
Elapsedtime_sec Temp_K Press_Pa Humidity_ppmv WindX_m/s WindY_m/s WindZ_m/s Speedofsound_m/s CH4vmr_ppmv CH4vmrerror_ppmv  
      0.00000000       291.83712       98615.304       14018.011       3.9065000       1.9240000     -0.13175000       342.83200       1.9474897     0.014024654
       6.0000077       291.83504       98625.979       13960.915       4.5105000       3.7562500     -0.85050000       342.90000       1.9352106     0.015965233
       11.000021       291.88932       98632.695       13939.709       3.2400000       4.0822500     -0.73300000       343.31500       1.9417222     0.019151556
       15.999994       292.00678       98633.706       13953.534       1.9945000       2.3310000      0.70700000       344.18600       1.9769204     0.019765978
       21.000007       292.16091       98635.738       14004.678       2.6870000       3.0937500     -0.60350000       342.89200       1.9897114     0.017145113
       26.000020       292.45251       98640.714       14099.037       3.3632500       3.3127500      0.28975000       343.61600       1.9697819     0.014998109
       30.999993       292.59815       98641.507       14175.427       2.8675000       3.3597500    -0.062000000       343.16800       2.0022027     0.014008645
       36.000006       292.80181       98639.601       14338.183       4.1712500       3.7875000     -0.14675000       343.07700       1.9968349     0.013519241
       41.000019       292.81058       98635.354       14405.810       2.5102500       3.0017500     -0.52975000       343.98400       2.0204277     0.015278689
       45.999992       292.50519       98625.920       14383.146       2.9932500       5.8685000     -0.76125000       342.78100       1.9676612     0.018177097
       51.000005       292.36772       98619.007       14379.040       3.3167500       3.0070000     -0.26350000       342.75000       1.9987479     0.019882935
       56.000018       292.11341       98608.885       14314.525       1.4090000       1.4727500      0.75050000       344.28600       1.9577566     0.014006598
       61.000031       292.03597       98603.135       14285.735      0.90225010       4.1910000      0.58850000       343.64600       1.9895606     0.019949412
       66.000004       292.15980       98601.151       14288.799       2.4207500       4.2702500     -0.71525000       343.68000       1.9139954     0.016168471
       71.000017       292.25419       98599.205       14283.155       2.0402500       5.3587500     -0.31675000       342.69400       2.0222831     0.015945587
       76.000030       292.41971       98598.802       14262.018       1.8237500       3.3267500     -0.24275000       344.03000       2.0055209     0.015276222
       81.000003       292.58187       98599.912       14271.758       2.5707500       2.2577500      0.93400000       344.19400       1.9961544     0.019638071
       86.000016       292.86554       98600.935       14337.213       1.8920000       3.5130000      -1.0422500       343.18400       2.0379162     0.020818261
       91.000029       292.95511       98605.144       14338.136       2.8782500       3.6510000     -0.70775000       343.36100       1.9888726     0.018437737
       96.999997       292.95406       98616.096       14317.091       2.3827500       3.2517500      0.12300000       343.63700       2.0249344     0.018419930
       102.00001       292.91252       98623.047       14303.941       3.4497500       3.3065000     -0.24800000       342.92600       1.9916579     0.016936460
       107.00002       292.69985       98633.091       14262.480       3.1857500       2.2097500      0.49550000       343.28400       1.9739875     0.017146663
       112.00000       292.53952       98638.385       14202.532       3.3540000       1.4490000    -0.099000010       343.11300       1.9827685     0.019195675
       117.00001       292.37217       98640.968       14151.056       1.7972500       2.5235000      0.55675000       343.00800       1.9631972     0.014815215
       122.00002       292.24517       98641.202       14084.883       2.9177500       2.7625000     -0.67325000       342.39200       1.9457337     0.021639421
       127.00000       292.08065       98636.371       13959.758       4.2885000       1.8757500     -0.70575000       343.20200       1.9206225     0.015846197
       132.00001       291.99444       98634.359       13878.227       3.9142500       2.0162500    -0.016000000       342.95900       1.9926644     0.015461206
       137.00002       292.00489       98633.440       13812.408       2.9120000       2.2927500      0.19950000       343.38500       1.9575303     0.019650910
       141.99999       291.98870       98629.073       13772.161       3.9665000       1.7965000      0.13750000       343.08700       1.9342947     0.020209032
       147.00001       292.00040       98624.275       13757.301       2.0745000       1.3882500    -0.091250000       344.09800       1.9290888     0.019342557
       152.00002       292.00052       98618.913       13741.313       2.9025000       2.2627500      0.28950000       343.85300       1.9466793     0.020104635
       156.99999       291.98733       98607.478       13746.979       1.8137500       1.7487500      0.42400000       344.06500       1.9582400     0.015125575
       162.00001       292.00125       98602.164       13755.838       2.6895000       2.8212500     -0.26250000       343.36300       1.9324904     0.020572939
       167.00002       292.02571       98599.467       13752.225       2.9940000       2.6107500      0.43100000       343.23000       1.9722317     0.016881225
       171.99999       292.05940       98599.235       13779.525       2.8000000       3.0732500   -0.0080000000       343.29800       1.9353192     0.017293338
       177.00001       292.15901       98601.582       13863.112       1.9232500       3.3580000     -0.51275000       343.58100       1.9753859     0.018484491
       182.00002       292.16718       98606.278       13890.798       1.6750000       3.8727500      0.12050000       343.49400       1.9827985     0.020176446
       188.00003       292.10439       98617.487       13881.714       2.7227500       3.0915000     -0.17250000       342.42300       1.9793481     0.021159061
       193.00000       292.09455       98624.436       13930.247       3.1497500       1.7467500      0.51075000       342.76000       1.9628827     0.019809767
       198.00001       292.04264       98634.349       13988.673     -0.28750000       3.1692500      0.22050000       343.30600       1.9964060     0.019190924
       203.00003       292.03529       98639.145       14029.895       1.2195000       2.7682500     -0.13350000       343.38800       1.9845522     0.018368695
       208.00000       292.08794       98641.217       14129.451      0.80725000       2.1547500      0.38625000       343.52700       1.9494370     0.016707540
       213.00001       292.11826       98640.945       14166.337       1.8840000       3.1362500     -0.41025000       343.16900       1.9760911     0.014194786
       218.00002       292.14261       98635.966       14136.495       3.3262500       2.3842500     -0.29825000       343.39600       1.9448601     0.015495254
       223.00000       292.16266       98633.961       14130.366       3.0642500       3.0195000     -0.20050000       342.30300       1.9992469     0.014539323
       228.00001       292.21068       98633.681       14134.169       2.0130000       2.1692500      0.90900000       343.50000       2.0371370     0.019946787
       233.00002       292.20826       98627.440       14114.358       2.7987500       1.6830000      0.50725000       343.39300       1.9822745     0.018634577
       238.00000       292.17014       98620.215       14070.473       2.1907500       2.4712500     0.037000000       343.18200       2.0053326     0.015487946
       243.00001       292.13337       98610.838       14036.688       1.9797500       2.2520000     -0.34475000       342.94100       2.0162821     0.021802805
       248.00002       292.04820       98588.906       13983.660       2.5960000       1.3825000      0.52000000       343.00500       2.0344965     0.014665964
       253.00000       292.03082       98585.697       13965.826       1.0150000       2.0262500      0.19975000       343.29000       1.9649895     0.022886993
       258.00001       292.05518       98591.008       13978.166      0.31025000       2.3647500     -0.22925000       343.13100       1.9616736     0.015139540
       263.00002       292.04548       98597.490       13962.670      0.42850000       2.6127500      0.29850000       343.47100       1.9638161     0.017989351
       267.99999       292.05712       98617.503       13950.346      0.66925000       2.1407500     -0.81025000       342.84600       1.9729164     0.020200102
       274.00000       292.04799       98628.822       13933.918       1.0880000       1.4627500     -0.19650000       343.33000       1.9942831     0.019877675
       279.00002       291.99708       98636.462       13890.348       1.1780000       1.9817500      0.10375000       343.33000       2.0048881     0.021516285
       284.00003       291.98569       98638.896       13888.352      0.89325000       1.7467500    -0.031000000       343.78700       1.9527181     0.020330216
       289.00000       292.00045       98637.969       13913.375       2.8035000       1.3810000     -0.11500000       343.95100       1.9951372     0.021878240
       294.00001       292.00056       98633.222       13931.918       1.2845000       3.0162500     -0.85400000       342.81800       1.9753365     0.015196542
       299.00003       292.00907       98620.638       13966.763       1.0492500       2.6525000     -0.45050000       342.49400       1.9819138     0.014334822
       304.00000       291.99032       98615.426       13982.313      0.13800000       2.5107500      0.40700000       343.31600       1.9884068     0.013815116
       309.00001       291.96279       98612.368       13989.867       1.6577500       2.1152500      0.25875000       343.13400       1.9998295     0.015376631
       314.00003       291.92436       98604.522       14005.386       3.0690000       2.6847500     -0.19325000       343.19400       2.0181234     0.022947060
       319.00000       291.86031       98594.591       14031.346       3.9420000       2.3695000     -0.24325000       343.22900       1.9805042     0.015221762
       324.00001       291.81089       98592.332       14011.983       2.5400000       1.2365000     0.021000000       343.44900       1.9779650     0.014675485
       329.00003       291.73271       98587.447       13969.119       1.7300000       1.9500000     -0.43325000       342.85800       2.0000111     0.020018638
       334.00000       291.73940       98590.045       13950.422       2.2465000       2.1185000     -0.21150000       344.09300       1.9668407     0.018744042
       339.00001       291.79791       98603.633       13913.277    0.0012500000       1.5095000    -0.033750000       343.89400       1.9740860     0.015286939
       344.00003       291.80775       98611.679       13873.485       1.7100000       3.0172500      0.18825000       343.59000       1.9643397     0.014374057
       349.00000       291.86001       98619.050       13848.914       1.2110000       3.8652500    -0.019250000       343.15500       1.9948594     0.014703145
       354.00001       291.86264       98626.003       13829.865       1.6090000       2.6595000     -0.77275000       343.62400       1.9443747     0.021710858
       359.00002       291.79705       98636.362       13778.736       1.4737500       3.5610000      -1.4507500       343.71700       2.0024428     0.020944147
       365.00003       291.79993       98638.826       13807.745       1.3327500       1.8967500     -0.12500000       344.31900       1.9878501     0.020574852
       370.00000       291.79990       98637.270       13832.109       1.5885000       2.7190000     0.019000000       342.72100       1.9865004     0.018893156
       375.00002       291.79983       98632.034       13859.706       1.6075000       3.1347500     -0.40525000       342.75300       2.0054058     0.015672490
       380.00003       291.80661       98620.387       13898.689       1.3992500       2.1062500      0.21600000       343.27600       1.9897803     0.020690649
       385.00000       291.78509       98613.278       13903.010       2.5662500       1.8802500      0.34125000       343.31500       2.0182186     0.014947870
       390.00002       291.72613       98604.157       13882.071      0.81725000       1.6997500      0.40600000       343.98300       1.9935823     0.014231798
       395.00003       291.83679       98601.901       13949.601       1.7267500       1.6625000      0.63900010       343.75600       1.9764337     0.018772139
       400.00000       291.89607       98599.771       13999.399       2.3847500       2.5875000      0.30625000       344.16000       2.0274153     0.015166464
       405.00002       292.02561       98598.719       14108.015       1.9192500       2.5955000     -0.81575010       343.53500       1.9919674     0.018605451
       410.00003       292.11842       98599.552       14194.256       1.5435000       3.7292500     -0.53500000       342.81600       1.9965979     0.014160988
       415.00000       292.17436       98601.606       14261.624      0.88050000       2.1102500     0.057500000       343.46500       2.0310746     0.023491663
       420.00002       292.14293       98603.913       14281.079       1.8860000       1.9252500      0.96575000       344.41700       2.0626136     0.015878191
       425.00003       292.18492       98610.264       14343.268       1.4335000       1.8065000      0.18850000       343.97000       1.9705806     0.019175865
       430.00000       292.25610       98621.015       14430.547       1.1670000       2.9535000      0.14575000       342.55500       1.9499478     0.014362890
       435.00001       292.30016       98630.238       14481.316       1.7880000       1.8960000     -0.30375000       343.52000       2.0012400     0.015236505
       440.00003       292.31312       98632.769       14494.076     -0.98350010       2.5875000      0.48675000       343.26200       1.9974963     0.015514006
       445.00000       292.26967       98628.657       14430.461      0.69275000       3.5827500     -0.66650000       342.89300       1.9951106     0.016087950
       450.00001       292.24976       98622.005       14397.262       1.6285000       3.0185000    -0.037000000       343.18700       2.0003196     0.015130949
       456.00002       292.22388       98602.031       14366.853      0.46625000      0.39825000       1.6472500       343.82200       2.0126269     0.015258017
       460.99999       292.19417       98592.314       14315.389       1.6567500       1.8130000     -0.25800000       343.46500       2.0142158     0.014903832
       466.00001       292.19652       98578.792       14270.123       2.0160000       1.1350000      0.13725000       343.58000       2.0061864     0.013992861
       471.00002       292.15403       98576.575       14207.497       2.2035000       3.0890000     -0.78275000       343.03500       2.0135914     0.014527262
       475.99999       292.07083       98594.653       14099.029       1.5257500       2.1105000    -0.023750000       343.49200       1.9906357     0.015173178
       481.00001       291.98922       98597.306       14009.004      0.10750000       1.5875000      0.74375000       343.46100       2.0255359     0.016166439
       486.00002       291.84993       98594.107       13901.001      0.69250010       1.7095000    -0.031750000       343.86400       1.9816375     0.015210302
       490.99999       291.77132       98595.958       13838.317       1.3280000       2.4930000     -0.57075000       343.52800       2.0130904     0.021995506
       496.00001       291.71920       98588.690       13787.126       1.8162500       3.0572500     -0.43025000       343.35500       1.9784283     0.014735115
       501.00002       291.68200       98588.254       13769.019       2.3182500       2.3227500     -0.11325000       342.98400       1.9859566     0.015046881
       506.00003       291.70071       98603.243       13807.393       2.6185000       1.7830000     -0.36625000       344.53800       1.9922139     0.015284595
       511.00000       291.70097       98607.859       13841.645       1.3057500       1.6290000     0.063500000       344.08200       2.0126234     0.020587141
       516.00002       291.71448       98608.583       13919.404       2.5437500       2.8770000     -0.49900000       343.02800       2.0071844     0.015825065
       521.00003       291.70328       98606.147       13954.088       1.5415000       1.3355000      0.64275000       343.53500       2.0196143     0.021491506
       526.00000       291.66545       98590.109       13950.262       2.8552500       2.4892500     0.090750000       343.99600       2.0103613     0.019302944
       531.00002       291.64524       98587.555       13980.042       2.5090000       1.2442500      0.31725000       343.42600       1.9883286     0.017276915
       536.00003       291.63805       98589.645       14036.567       1.9112500      0.82725010     -0.64275000       343.17700       1.9988447     0.014386903
       541.00000       291.59721       98594.167       14038.471       3.1360000       1.7157500     0.075000000       343.27600       2.0041761     0.019184466
       547.00001       291.52414       98616.444       14029.097       2.8580000       1.5337500    -0.034000000       343.27000       1.9748622     0.015002450
       552.00002       291.48444       98625.286       14017.375       2.1372500       1.3532500      0.33650000       343.50400       1.9961031     0.020369324
       557.00000       291.41005       98629.317       13945.317       1.4967500       2.7495000     -0.78625010       343.00200       1.9975963     0.015684012
       562.00001       291.37765       98632.573       13904.010       1.9382500       1.4427500     -0.53750000       343.08300       1.9929431     0.013858018
       567.00002       291.38764       98634.245       13891.040       3.7745000       2.6850000     -0.35375000       344.06000       1.9905059     0.015269774
       572.00000       291.40170       98630.165       13874.447       2.9555000       1.4427500     0.044000000       343.75600       1.9607120     0.020472587
       577.00001       291.43882       98621.174       13840.170       2.7847500       4.0662500     -0.55725000       342.66800       1.9783820     0.019094857
       582.00002       291.45910       98612.389       13830.121       2.1417500       4.3730000     -0.66325000       343.04700       1.9501537     0.019572623
       586.99999       291.49529       98591.489       13845.807       2.1295000       1.5595000     -0.26200000       343.66300       1.9959045     0.013912927
       592.00001       291.51144       98585.401       13857.096       2.2102500       1.6880000      0.22450000       343.40300       1.9705336     0.015023972
       597.00002       291.50040       98587.551       13875.316       3.2432500       3.0640000     -0.26275000       342.83900       1.9987142     0.014810612
       601.99999       291.50052       98589.836       13893.612       3.0600000       2.2802500     -0.13600000       342.93600       1.9289223     0.014245975
