MIRICO/SHELL project - Processed LDS file generated on
Wed Jul 19 14:01:33 2017
Time stamp for record start
05/12/2017  09:48: 4.0000
Nb of points in the record
         562
Beam position index
       1.0000000
Beam angle (degrees)
      -18.455000
Open Path length (m)
       34.890000
****************** Temporal data record ************************
Elapsedtime_sec Temp_K Press_Pa Humidity_ppmv WindX_m/s WindY_m/s WindZ_m/s Speedofsound_m/s CH4vmr_ppmv CH4vmrerror_ppmv  
      0.00000000       286.75405       98768.849       15139.682       3.2712500       1.7285000     -0.16200000       340.56400       2.1281841     0.015331863
       5.0000131       286.73407       98767.364       15126.824       2.0817500      0.56975000      0.65850000       340.68800       2.1452945     0.012090007
       9.9999860       286.68783       98767.870       15089.638       2.8282500       1.8157500     -0.13500000       340.85100       2.2608821     0.015803237
       14.999999       286.69572       98771.543       15083.413       2.9512500      0.73700000     0.049500000       341.05100       2.1364985     0.012547839
       20.000012       286.72846       98783.507       15078.151       2.9762500      0.77825000   -0.0052500000       340.83800       2.0790471     0.012523155
       24.999985       286.78634       98791.553       15127.561       4.5562500       1.5467500     -0.79150000       340.84400       2.2305224     0.012057010
       29.999998       286.91509       98799.127       15237.103       2.4182500     -0.30675000      0.11250000       340.84000       2.1969165     0.013613213
       35.000011       286.92937       98806.140       15263.081       3.7195000      0.94900010     -0.32700000       340.94800       2.1065586     0.033858809
       41.000019       286.90594       98816.308       15290.746       4.2645000       2.2630000     -0.45425000       340.67600       2.1838718     0.014277022
       45.999992       286.90464       98819.972       15323.427       4.1922500    -0.026250000     -0.46000000       340.63500       2.1238846     0.017217023
       51.000005       286.83704       98821.684       15295.289       3.8142500      0.76025000      0.11575000       340.91700       2.2732848     0.013540370
       56.000018       286.84035       98820.449       15335.083       4.7152500      0.87300000     -0.59825000       340.79200       2.2165890     0.014499497
       60.999991       286.91213       98816.457       15454.701       3.4317500       1.1317500     -0.62275000       340.98600       2.2122128     0.011789104
       66.000004       286.83988       98807.067       15414.229       2.5412500       1.1460000      0.27700000       341.09900       2.2628307     0.017008217
       71.000017       286.83694       98799.987       15398.128       5.1070000       1.1220000      0.45425000       340.70900       2.0387278     0.017190176
       75.999990       286.84542       98793.259       15316.305       3.1905000     -0.59450000     -0.11400000       340.89000       2.1624529     0.012451961
       81.000003       286.88186       98785.377       15297.540       3.9512500      0.15825000     -0.46950000       340.61900       2.1160369     0.016017186
       86.000016       287.04477       98772.684       15360.120       3.0030000       1.3967500     -0.12550000       341.05900       2.1807681     0.011210561
       90.999989       287.11794       98768.279       15388.082       3.3825000      0.69825010    -0.012750000       340.74400       2.3266150     0.019270179
       96.000002       287.15420       98767.539       15416.877       2.2467500       1.0055000     -0.37475000       341.03400       2.1265577     0.012014133
       101.00002       287.17686       98768.248       15468.571       2.2665000      0.40325000     -0.38450000       341.13700       2.0836900     0.016553694
       105.99999       287.13101       98772.722       15501.577       2.5890000       1.1297500     -0.11400000       341.05000       2.1676573     0.034766178
       111.00000       286.99469       98785.115       15509.844       2.8895000      0.93425010      0.12700000       340.85800       2.2280298     0.012421381
       116.00001       286.94491       98794.997       15566.538       2.0380000      0.47700000      0.27275000       341.09200       2.1391851     0.011638186
       120.99999       286.89328       98801.245       15563.191       1.5695000    -0.051250000      0.28900000       341.22700       2.1635747     0.011742144
       126.00000       286.87027       98805.914       15486.754       2.6305000      0.52575000     0.035750000       340.81400       2.2510477     0.014905152
       132.00001       286.84669       98811.924       15418.831       3.8115000       1.0430000     -0.17575000       340.53600       2.2379226     0.012491342
       136.99998       286.83901       98813.757       15330.103       3.0057500       1.0052500     -0.26800000       340.88000       2.2395327     0.014249281
       141.99999       286.79756       98815.844       15250.814       2.3032500      0.78850000      0.24000000       341.06900       2.1247713     0.031586973
       147.00001       286.73172       98820.731       15190.867       3.2675000       1.5680000     -0.41375000       340.79200       2.1104916     0.013980452
       151.99998       286.69147       98821.504       15121.935       2.0000000      0.45825000   -0.0047500000       340.95800       2.2704219     0.012767676
       156.99999       286.63306       98819.610       15048.156       2.6307500      0.68825000    -0.061500000       341.16800       2.1173047     0.014501355
       162.00001       286.58412       98815.365       14962.726       1.8857500      0.30675000     -0.41100000       341.11300       2.1136860     0.012332547
       166.99998       286.53765       98805.729       14820.712       2.2872500       2.4202500     0.074750010       340.83800       2.2420942     0.016296764
       171.99999       286.54049       98798.737       14768.906       2.8642500       1.8895000     -0.17675000       340.88000       2.1877048     0.013704618
       177.00001       286.57794       98788.733       14750.549       2.5805000      0.93500010       1.1002500       341.02000       2.1215933     0.014894276
       182.00002       286.59906       98782.965       14750.564       3.8202500       2.3560000     -0.27950000       340.71500       1.9786432     0.031979866
       186.99999       286.68029       98781.231       14828.373       2.6545000       2.3712500     0.022750000       340.53200       2.1405821     0.012806304
       192.00000       286.71761       98779.370       14899.276       3.2277500       1.9977500     0.048500000       340.79300       2.1773098     0.014964157
       197.00002       286.69964       98778.969       14990.350       2.5012500       1.6362500      0.55200000       340.93200       2.1430282     0.011539763
       201.99999       286.69955       98780.170       15049.464       1.8437500      0.56400000     0.027000000       341.01100       2.2414103     0.020506380
       207.00000       286.67190       98780.914       15090.463       3.1807500      0.95375010      0.58375000       341.12100       2.2092246     0.012426461
       212.00002       286.69408       98785.139       15160.648       3.6505000       1.7520000     -0.23250000       340.50100       2.0365489     0.019980769
       216.99999       286.78243       98796.208       15258.900       3.3372500       1.9677500      0.35725000       340.89100       2.1763041     0.012588185
       223.00000       286.81508       98803.041       15298.542       2.9537500      0.56100000     0.083000000       340.83000       2.1441198     0.012821205
       228.00001       286.83972       98812.184       15327.095       2.8522500       1.1742500     -0.16000000       340.80100       2.1786311     0.012764254
       232.99998       286.86578       98812.690       15344.618       2.1075000      0.78275000     0.066250000       341.25900       2.2616795     0.015460955
       238.00000       286.84393       98800.198       15305.068       1.8870000     -0.18400000     -0.16025000       340.72800       2.3011490     0.015536518
       243.00001       286.84790       98799.018       15266.363       2.1845000      0.49800000     -0.10750000       341.30300       2.1357287     0.013907226
       247.99998       286.89526       98799.133       15222.903       3.2377500      0.40125000     -0.47375000       340.76800       2.2281372     0.012709300
       253.00000       286.91170       98799.942       15206.099       3.3132500      0.63425000      0.57225000       341.05000       1.8394788     0.053186740
       258.00001       286.92603       98811.982       15180.958       2.0882500     0.047750000     0.067750010       341.11100       2.3897893     0.035550507
       262.99998       286.89863       98812.482       15149.855       2.1060000       1.0040000     -0.45850000       341.06100       2.4176670     0.046852766
       267.99999       286.82419       98803.975       15149.316       2.7847500       1.2507500      0.10050000       340.98300       2.1381330     0.015017923
       273.00001       286.78449       98798.634       15138.791       2.2170000       1.6652500      0.15100000       341.07900       1.9515888     0.025486886
       277.99998       286.71050       98790.402       15085.020       3.1487500       1.8877500     -0.19725000       340.96400       2.0753032     0.020003149
       282.99999       286.67817       98782.416       15070.002       4.1047500       1.3850000     -0.37200000       340.99400       2.0356725     0.029287068
       288.00001       286.72519       98773.280       15125.294       4.5952500      0.18400000     -0.38150000       340.93800       2.2461398     0.011591651
       292.99998       286.69736       98767.623       15102.034       2.7865000       1.1717500      0.14825000       341.00800       2.0435449     0.021610506
       297.99999       286.61018       98758.575       15031.395       4.1812500       2.1665000      0.11150000       340.66600       2.2153015     0.013960423
       303.00001       286.58364       98757.967       14987.083       2.5237500      0.29925000      0.24100000       341.15200       2.2360383     0.012386972
       308.00002       286.53509       98766.675       14894.494       2.6885000     -0.15850000      0.19850000       340.87200       2.2652320     0.016368957
       313.99999       286.54118       98773.274       14848.949       3.8945000       1.3072500     -0.41575000       340.72400       2.0780582     0.021378486
       319.00000       286.62912       98784.294       14854.474       3.7547500       1.2415000     -0.21275000       340.45700       2.0994201     0.016223086
       324.00001       286.67933       98789.083       14863.421       2.8827500      0.93050000     -0.44125000       340.57400       2.1258354     0.014862444
       328.99999       286.74128       98788.262       14893.361       3.0207500      0.79475000      0.15100000       340.82600       2.2185802     0.010565037
       334.00000       286.77523       98793.060       14917.343       2.5797500      0.59300010     0.080250000       340.85300       2.1833311     0.011461377
       339.00001       286.79905       98798.895       14940.960       1.9922500     0.024750000      0.20425000       340.96100       2.1253434     0.013799294
       343.99998       286.81272       98802.929       14995.685       2.0747500    -0.016000000      0.30325000       341.02900       2.1557884     0.012464965
       349.00000       286.81101       98810.131       15089.972       2.4340000     -0.61375000     -0.34675000       340.76800       2.1616619     0.011680588
       354.00001       286.79469       98812.817       15124.574       2.8152500     -0.18225000    -0.075000000       340.54000       2.1787117     0.015386623
       358.99998       286.75792       98810.429       15173.582       2.2560000     0.054500000     0.087000000       340.98000       2.0175403     0.019204125
       364.00000       286.73801       98810.489       15175.462       2.8487500     -0.22300000    -0.030750000       340.59000       2.1381363     0.016213040
       369.00001       286.70126       98812.730       15104.997       2.4147500    -0.049750000      0.17525000       340.74200       2.2391209     0.013012471
       373.99998       286.68767       98809.470       15065.204       2.6387500     0.082250010      0.29875000       340.88000       2.2151520     0.011729454
       379.00000       286.70020       98802.015       15028.737       2.3550000     0.022750000     -0.16375000       340.78600       2.1877435    0.0098172291
       384.00001       286.70025       98798.044       14982.394       1.8395000      0.41600000     -0.24650000       340.87100       2.1485997     0.016663897
       388.99998       286.71165       98791.332       14938.672       1.8985000     -0.72000000      0.17975000       341.20900       2.1418709     0.013124980
       394.00000       286.69584       98786.882       14866.651       3.4190000     -0.75375000     0.067250010       340.85100       2.1239651     0.013425130
       399.00001       286.64668       98788.418       14743.727       2.5860000     0.055750000     -0.10250000       341.10200       2.1829674     0.012026356
       405.00002       286.64375       98781.911       14690.984       2.5770000     -0.25775000     0.098250000       340.93900       2.2504551     0.016813335
       409.99999       286.63288       98770.800       14639.918       2.2190000     -0.25150000     -0.22725000       340.80500       2.1843990     0.012744136
       415.00000       286.66098       98765.577       14659.635       2.1755000     -0.29950000      0.39025000       340.97200       2.1368580     0.011974565
       420.00002       286.75727       98757.788       14764.722       2.4047500   -0.0077500000     -0.28650000       340.64700       2.1472330     0.014070462
       424.99999       286.76963       98759.211       14827.623       3.8782500     0.035000000      0.44725000       340.83200       2.3173558     0.017201707
       430.00000       286.76532       98769.627       14916.930       2.0937500      0.54350000   -0.0092500000       340.79900       2.1513067     0.013257879
       435.00001       286.73793       98773.637       14958.499       3.8202500     -0.30775000      0.36550000       340.94800       2.2596780     0.017120754
       439.99999       286.65030       98781.016       14983.897       3.1525000      0.78625010      0.26075000       340.66100       2.0627177     0.072175120
       445.00000       286.61908       98783.255       14990.809       3.7167500       1.6912500     -0.44325000       340.77100       2.0547781     0.016461830
       450.00001       286.59719       98777.596       14972.064       2.2740000       1.0330000      0.23600000       340.83900       2.1556556     0.011745701
       454.99999       286.58587       98783.150       14943.734       3.1845000      0.54950000      0.15850000       340.98600       2.1688188     0.012545048
       460.00000       286.59976       98793.707       14911.270       3.1542500      0.18125000      0.41125000       340.87500       2.0935828     0.014454410
       465.00001       286.59958       98799.687       14841.217       2.9627500      0.77525000     -0.47975000       340.94300       2.2375111     0.022187325
       469.99999       286.59103       98810.192       14721.748       2.9935000       1.6627500     -0.20000000       340.67300       2.1501175     0.010695573
       475.00000       286.60977       98815.538       14659.988       5.7547500       1.2152500     0.048000000       340.65400       2.0163836     0.016577774
       480.00001       286.64723       98815.766       14586.603       3.8762500      0.23825000    -0.097750010       340.64800       2.1248570     0.014732024
       484.99998       286.66745       98815.869       14557.706       3.2877500      0.93350010     0.042250000       340.80100       2.2095956     0.011610990
       490.99999       286.70660       98815.204       14578.985       2.6042500       1.5402500      0.58500000       340.77600       2.2075757     0.012052096
       496.00001       286.71522       98816.152       14594.278       2.3277500     -0.17400000      0.27075000       341.11800       2.0611785     0.017914194
       501.00002       286.69954       98815.192       14614.577       2.9550000       1.1122500    -0.056000000       340.74900       2.2107320     0.012805138
       505.99999       286.69923       98814.174       14662.231       2.7327500      0.19800000     -0.17400000       340.90200       2.1433236     0.011039749
       511.00000       286.69999       98816.942       14738.310       2.9455000       1.0525000    -0.027000000       340.84800       2.0685475     0.017381553
       516.00002       286.69966       98805.648       14815.567       2.8460000      0.78500000      0.36375000       340.79500       1.8593051     0.046746149
       520.99999       286.69957       98799.446       14864.098       4.0857500     -0.23825000      0.23125000       340.77500       2.2116038     0.010604075
       526.00000       286.70032       98794.620       14888.629       2.6537500     -0.33675000     -0.12025000       340.77900       2.1571866     0.012860452
       531.00002       286.70029       98789.501       14903.476       1.5582500     -0.32150000      0.53700000       340.98000       2.1649264     0.010996008
       535.99999       286.70001       98790.356       14891.077       1.9200000     -0.66450010     0.023500000       340.95700       2.1637149     0.012884519
       541.00000       286.70001       98786.684       14882.431       3.3565000      0.54775010     0.097250010       340.92700       2.0540087     0.018801997
       546.00002       286.70001       98780.540       14870.176       3.8022500      0.96375010    -0.064250000       340.44100       2.1888291     0.013270977
       550.99999       286.69954       98769.706       14854.821       3.0175000      0.88225010      0.25950000       340.68100       2.0618242     0.019828648
       556.00000       286.69923       98764.710       14825.057       3.6915000      0.52650000     -0.19100000       340.73100       2.2333242     0.014663429
       561.00001       286.69999       98757.674       14788.635       3.2487500      0.73475000     -0.10675000       340.79200       2.0203197     0.019334777
       565.99999       286.68516       98766.356       14713.432       3.5565000      0.60400000     -0.59550010       340.53500       2.2663503     0.012355270
       571.00000       286.69372       98770.400       14695.877       3.4897500    -0.066500000    -0.097000000       340.61600       2.3882517     0.023341018
       576.00001       286.73036       98775.705       14736.685       3.5727500     -0.57000010     -0.26025000       340.55600       2.1052613     0.012793580
       581.99998       286.75421       98781.538       14768.758       3.3385000    0.0062500000      0.25575000       340.61300       2.2432826     0.011590344
       586.99999       286.79009       98780.649       14840.252       2.0340000      0.30625000     -0.38275000       340.82000       2.2163970     0.011330233
       592.00001       286.80846       98784.906       14886.966       1.4095000      0.66050000      0.36300000       340.96200       2.2043708     0.010559176
       596.99998       286.78609       98796.198       14892.737       2.9960000      0.78375010     0.090750000       340.94300       2.1371977     0.013288020
       601.99999       286.79761       98802.174       14931.025       3.9192500       2.2880000     -0.45625000       340.56800       2.1283981     0.016048226
