MIRICO/SHELL project - Processed LDS file generated on
Wed Jul 19 14:46:43 2017
Time stamp for record start
05/12/2017  09:47:59.0000
Nb of points in the record
         563
Beam position index
       2.0000000
Beam angle (degrees)
      -8.6380000
Open Path length (m)
       64.850000
****************** Temporal data record ************************
Elapsedtime_sec Temp_K Press_Pa Humidity_ppmv WindX_m/s WindY_m/s WindZ_m/s Speedofsound_m/s CH4vmr_ppmv CH4vmrerror_ppmv  
      0.00000000       286.80504       98778.772       15159.671       3.8680000       1.2940000     -0.49225000       340.50200       1.9150744     0.010988247
       5.0000131       286.75405       98768.849       15139.682       3.1580000       1.9292500     -0.29425000       340.60100       1.9533547     0.011226992
       11.000021       286.73007       98767.509       15123.698       3.2875000      0.89200000    -0.042250000       340.76000       1.8972468     0.018880548
       15.999994       286.68738       98768.300       15087.408       3.4472500       1.5257500     -0.46525000       340.79400       2.0105595    0.0098177305
       21.000007       286.70034       98772.734       15083.644       2.9942500       1.4047500     -0.21350000       340.87600       1.9830859     0.010787427
       26.000020       286.73803       98785.115       15085.529       2.8075000       1.7810000    -0.054500000       341.07000       1.9527110     0.010629804
       30.999993       286.87593       98793.455       15201.824       4.1610000      0.93300000     -0.57850000       340.71200       1.9731976     0.014554269
       36.000006       286.92103       98800.536       15243.913       2.9685000      0.41325000    0.0025000000       341.18000       2.0362744     0.010807048
       41.000019       286.89494       98810.187       15250.101       3.5432500      0.56675000     -0.28325000       341.03900       2.0343294     0.010496206
       46.000032       286.90594       98816.308       15290.746       4.2227500       2.1690000      0.22675000       340.79700       1.9351732     0.012507172
       51.000005       286.90464       98819.972       15323.427       4.2970000       1.0075000    -0.090250010       340.77800       1.9810559    0.0099293307
       56.000018       286.83704       98821.684       15295.289       4.1095000       1.1180000      0.21000000       340.87600       2.0209744    0.0093208104
       61.000031       286.84035       98820.449       15335.083       4.9237500      0.93050000    -0.064750000       340.64500       1.9950016    0.0099313517
       66.000004       286.91213       98816.457       15454.701       3.1067500      0.77875010     -0.17000000       341.01200       1.9165111     0.011077141
       71.000017       286.83988       98807.067       15414.229       3.0690000       1.4630000      0.18350000       341.04200       1.9200650     0.016203975
       76.000030       286.83694       98799.987       15398.128       3.0135000     -0.21425000      0.51150000       340.91100       1.9957009    0.0090165127
       81.000003       286.84542       98793.259       15316.305       3.4355000      0.66825000      0.31400000       340.96800       1.9677980     0.010641535
       86.000016       286.88186       98785.377       15297.540       4.0150000    -0.020500000      0.40350000       340.89900       1.9895466    0.0088587131
       91.000029       287.04477       98772.684       15360.120       2.3640000       1.6632500      0.37575000       340.97400       1.9935180    0.0092662181
       96.999997       287.12815       98767.838       15393.766       3.2205000      0.81375000     -0.18125000       340.87300       1.9664010     0.013135319
       102.00001       287.17691       98767.431       15436.554       2.3345000      0.50475000      0.38125000       340.94600       1.9669020     0.011743970
       107.00002       287.17175       98768.836       15475.813       2.0935000  -0.00025000000    -0.092500000       341.10400       1.9928372    0.0094836839
       112.00000       287.04277       98778.686       15497.551       2.8807500      0.34100000      0.54650000       341.26100       2.0285081     0.010327756
       117.00001       286.98394       98786.724       15512.723       2.6252500      0.55575000     -0.12175000       340.84300       1.9981022     0.010040859
       122.00002       286.93355       98796.354       15568.970       2.4130000      0.31825000     0.067750010       340.99100       1.9874383     0.010198800
       127.00000       286.88451       98802.334       15557.890       2.3910000      0.64825000     -0.18950000       341.30500       2.0180488    0.0098407985
       132.00001       286.86634       98807.037       15476.403       2.9430000      0.72825000     -0.13400000       340.82700       1.9935950     0.010678955
       137.00002       286.84669       98811.924       15418.831       3.7262500      0.77900000     0.058750000       340.52500       1.9948906    0.0086834282
       141.99999       286.83901       98813.757       15330.103       3.5347500       1.3437500     -0.16425000       340.66600       2.0139691    0.0097917032
       147.00001       286.79756       98815.844       15250.814       2.9437500      0.80100010      0.13675000       341.12800       2.0617545     0.012521019
       152.00002       286.73172       98820.731       15190.867       3.5420000       1.3000000      0.35850000       340.91700       1.9622858    0.0096744224
       156.99999       286.69147       98821.504       15121.935       2.6615000      0.23100000     0.056500000       340.86600       1.9954905    0.0099045241
       162.00001       286.63306       98819.610       15048.156       2.2987500      0.55600010      0.20900000       341.17400       1.9501356    0.0095266483
       167.00002       286.58412       98815.365       14962.726       2.4670000      0.39600000      0.31825000       341.21000       2.0215601     0.014899991
       171.99999       286.53765       98805.729       14820.712       2.5255000       2.3127500    -0.022750000       340.80400       1.9385414     0.010861301
       177.00001       286.54049       98798.737       14768.906       2.8425000       2.5725000      0.22575000       341.05200       1.9583108     0.012507632
       182.00002       286.57794       98788.733       14750.549       1.7385000       3.0400000      0.39125000       341.11600       1.9679921    0.0098800738
       188.00003       286.60475       98782.106       14755.043       3.0145000       2.8002500     -0.24300000       340.64600       1.9545175     0.010110486
       193.00000       286.68977       98780.757       14842.042       3.0860000       2.4492500      0.38025000       340.66200       1.9433967     0.011546751
       198.00001       286.72205       98779.149       14914.220       3.8082500       1.3047500      0.27600000       340.79400       1.9949126    0.0093890756
       203.00003       286.69962       98779.108       15002.833       2.1937500       1.9747500      0.46150000       341.04300       1.9742440    0.0091749552
       208.00000       286.69954       98780.562       15060.297       2.2670000      0.74425010      0.24425000       341.19900       2.0031068    0.0089246483
       213.00001       286.67432       98781.561       15104.157       3.3702500       1.2860000     0.069500010       340.58500       1.9079184     0.011826531
       218.00002       286.70153       98786.281       15175.210       3.8452500       1.6005000     -0.28000000       340.58300       1.9835488    0.0099239935
       223.00000       286.78910       98797.470       15267.523       3.0312500      0.94900010      0.27275000       340.91100       1.9691476     0.010495462
       228.00001       286.81508       98803.041       15298.542       2.6682500       1.1142500     0.055750000       340.79300       1.9437762     0.010595820
       233.00002       286.83972       98812.184       15327.095       3.1410000       1.1395000     -0.29950000       340.80100       2.0031338    0.0088213739
       238.00000       286.86578       98812.690       15344.618       2.1785000      0.69150000     -0.12075000       341.25800       1.9957913    0.0097521919
       243.00001       286.84393       98800.198       15305.068       2.1617500      0.27950000      0.20325000       340.90300       1.9718151    0.0098466458
       248.00002       286.84790       98799.018       15266.363       2.5732500      0.85400000      0.15475000       341.30900       2.0052645     0.014432202
       253.00000       286.89526       98799.133       15222.903       3.4685000      0.35825000     -0.45825000       340.73100       1.9385859     0.013414351
       258.00001       286.91170       98799.942       15206.099       2.9962500    -0.020250000    -0.010500000       340.90700       1.9787803    0.0097243612
       263.00002       286.92603       98811.982       15180.958       1.9382500     0.084250000     0.095750000       341.05100       1.9638504     0.011544252
       267.99999       286.89863       98812.482       15149.855       1.7702500      0.93575010      0.33000000       341.33300       2.0259739     0.010559059
       273.00001       286.82419       98803.975       15149.316       2.0305000      0.75675000     -0.39900000       341.01400       1.9699873     0.013759493
       279.00002       286.77655       98797.419       15135.741       2.4742500       1.1845000      0.10050000       341.17200       1.9406145     0.017628038
       284.00003       286.70202       98788.809       15080.494       2.5127500       2.1775000     -0.21275000       341.11400       1.9709563    0.0095855148
       289.00000       286.67472       98780.813       15069.281       3.2402500       2.1740000     -0.15650000       341.14300       1.7767549     0.019295849
       294.00001       286.72163       98772.048       15122.981       3.6130000       1.3790000     -0.15225000       340.61600       1.9649863     0.012015768
       299.00003       286.68879       98766.643       15093.878       3.3532500       1.0770000    -0.072000000       341.01400       1.9954667     0.012600213
       304.00000       286.60382       98758.049       15022.990       4.0560000       1.9120000     -0.50175010       340.43000       2.0163908    0.0093394668
       309.00001       286.57992       98758.452       14977.535       3.9775000      0.14825000     -0.18300000       340.48000       1.9500443     0.011987509
       314.00003       286.53242       98767.650       14884.271       2.9850000      0.70625000     -0.48650000       340.79400       1.9231925     0.010717713
       319.00000       286.54118       98773.274       14848.949       3.2010000       2.2917500     0.080750000       340.97000       1.9804106    0.0095763421
       324.00001       286.62912       98784.294       14854.474       3.8610000       1.0412500     -0.21650000       340.54500       1.9389356     0.012663352
       329.00003       286.67933       98789.083       14863.421       3.6260000       1.0847500     0.022500000       340.72200       2.0371308    0.0090994217
       334.00000       286.74128       98788.262       14893.361       3.4090000      0.40350000      0.16600000       340.47900       2.0263709     0.011561714
       339.00001       286.77523       98793.060       14917.343       2.5150000      0.14325000    -0.029250000       340.85500       2.0116727    0.0089115052
       344.00003       286.79905       98798.895       14940.960       1.9252500      0.20050000     0.071250010       340.94000       1.9694055    0.0097775462
       349.00000       286.81272       98802.929       14995.685       1.3515000     -0.10975000     0.034000000       341.02800       1.9585984    0.0097480949
       354.00001       286.81101       98810.131       15089.972       2.1102500   -0.0052500000    0.0052500000       340.79900       1.9826665    0.0090189385
       359.00002       286.79469       98812.817       15124.574       2.5387500     -0.39575000     -0.12050000       340.52000       1.9670991     0.014469855
       364.00000       286.75792       98810.429       15173.582       2.8627500     -0.26800000      0.51425000       341.08100       1.9128399     0.013348867
       370.00000       286.73403       98810.500       15171.761       3.0167500     -0.53275000     -0.48350000       340.56200       1.9255171     0.010747518
       375.00002       286.69754       98812.281       15097.165       1.8842500      0.56100000     -0.10175000       340.99400       1.9746273    0.0099598643
       380.00003       286.68645       98808.513       15057.053       2.6050000      0.15475000      0.23400000       340.87600       1.9348236     0.014291356
       385.00000       286.70021       98801.221       15019.951       2.5585000     0.048750000    -0.089000000       340.79900       1.9415513     0.011409403
       390.00002       286.70027       98797.250       14972.403       1.9215000       1.0112500     0.086250010       340.98700       1.9932154    0.0090533163
       395.00003       286.70949       98790.339       14925.546       2.0365000     -0.33100000     0.057500000       341.12700       1.9215903     0.015663812
       400.00000       286.69118       98786.147       14850.337       3.1142500     -0.60050000     -0.25800000       340.81800       1.9579054     0.013000578
       405.00002       286.64495       98787.581       14732.504       2.2885000      0.53050010    -0.058250000       341.06600       1.9463151    0.0095134008
       410.00003       286.64375       98781.911       14690.984       2.5460000      0.17975000     -0.17200000       340.61500       2.0346411     0.011258917
       415.00000       286.63288       98770.800       14639.918       2.2252500      0.38825000     -0.35950000       340.74000       1.9812188    0.0093363273
       420.00002       286.66098       98765.577       14659.635       1.5852500      0.16400000      0.54350000       340.99300       1.9507571     0.010758959
       425.00003       286.75727       98757.788       14764.722       2.1252500     -0.27025000     0.056000000       340.58200       1.9685880     0.014467462
       430.00000       286.76963       98759.211       14827.623       3.0322500      0.42200000      0.34250000       340.92300       1.9327340     0.013104649
       435.00001       286.76532       98769.627       14916.930       1.7790000      0.39275000      0.22575000       340.93900       1.9906550    0.0094766515
       440.00003       286.73793       98773.637       14958.499       4.1130000     -0.47350000     -0.67225000       340.76800       2.0076095    0.0096337337
       445.00000       286.65030       98781.016       14983.897       3.7797500      0.86150000     -0.36450000       340.62900       2.0775554     0.017020369
       450.00001       286.61908       98783.255       14990.809       3.7187500       1.1600000     -0.32600000       340.64100       1.9684440     0.015420571
       455.00003       286.59719       98777.596       14972.064       3.8052500      0.66025000     -0.19150000       340.82900       1.9718636    0.0096978098
       460.99999       286.58508       98784.704       14936.379       2.8320000       1.0147500     -0.31475000       340.88200       1.9398646     0.014866223
       466.00001       286.59973       98794.897       14899.257       2.8182500      0.43525000      0.79350010       340.97000       2.0532921     0.013114468
       471.00002       286.59954       98800.891       14824.211       2.7242500      0.55375000     -0.19350000       340.77500       1.9777921     0.010851170
       475.99999       286.59378       98811.460       14708.405       3.3717500       1.2502500     -0.19575000       340.78400       1.9026572     0.017705654
       481.00001       286.63081       98814.754       14630.436       4.4477500       1.0502500     -0.58250000       340.56100       1.9496418     0.010036749
       486.00002       286.65130       98815.890       14578.519       2.5895000       1.2085000     -0.72625010       340.91100       1.9411025    0.0098376539
       490.99999       286.68559       98814.256       14575.622       3.5662500      0.52675000     -0.82575010       340.62800       1.9360956     0.011089682
       496.00001       286.70660       98815.204       14578.985       3.0675000       1.3295000      0.33500000       340.76100       1.9347494     0.014037902
       501.00002       286.71522       98816.152       14594.278       2.4655000     -0.12425000      0.46575000       341.03900       1.9556764     0.013386055
       506.00003       286.69954       98815.192       14614.577       3.2962500      0.20875000     0.047000000       340.82800       1.9282421     0.010592980
       511.00000       286.69923       98814.174       14662.231       2.9570000     -0.19825000     -0.10275000       340.92300       2.0136346    0.0093090547
       516.00002       286.69999       98816.942       14738.310       3.8990000      0.18100000     0.099750000       340.86100       1.9805873     0.014806526
       521.00003       286.69966       98805.648       14815.567       3.5452500     -0.70075010    -0.089000000       340.91900       1.9557570    0.0091032962
       526.00000       286.69957       98799.446       14864.098       3.9157500     0.075750000    0.0097500000       340.80100       1.9832444    0.0093308464
       531.00002       286.70032       98794.620       14888.629       2.5810000     -0.80450000     -0.36125000       340.76500       2.0331167     0.010355492
       536.00003       286.70029       98789.501       14903.476       2.2215000     -0.21525000      0.24575000       340.93800       2.0286343    0.0092875420
       541.00000       286.70001       98790.356       14891.077       1.8080000     -0.52075000      0.35675000       340.93700       2.0196566    0.0092437670
       546.00002       286.70001       98786.684       14882.431       2.7522500      0.40150000     0.076000010       341.07600       1.9141246     0.013789059
       552.00002       286.69975       98774.552       14872.432       3.1552500       1.3265000     -0.29875000       340.51700       1.9436325    0.0092601871
       557.00000       286.69948       98768.612       14849.557       3.2595000      0.87000010     -0.58325000       340.56100       1.9544511     0.011974328
       562.00001       286.70001       98759.360       14813.129       3.3442500      0.62150000     -0.17200000       340.71100       1.9382542     0.012415148
       567.00002       286.69998       98757.752       14782.227       3.4537500      0.80700000    -0.097000000       340.69100       1.9236852     0.015151548
       572.00000       286.68587       98767.168       14707.296       3.2865000       1.2237500      0.22325000       340.67000       1.9458813     0.013436041
       577.00001       286.69694       98771.204       14696.303       3.5970000     -0.17825000     -0.20150000       340.53100       1.9533919    0.0099024001
       582.00002       286.73434       98776.804       14740.815       3.6512500    -0.078750010     -0.46400000       340.58000       1.9950650    0.0093136268
       586.99999       286.75421       98781.538       14768.758       2.8510000     -0.26925000      0.13750000       340.61000       1.9584096    0.0096201246
       592.00001       286.79009       98780.649       14840.252       2.2420000     -0.41775000     -0.43125000       340.72200       2.0060881     0.010371738
       597.00002       286.80846       98784.906       14886.966       1.0467500      0.52875000      0.42525000       341.00000       2.0186231    0.0084951558
       601.99999       286.78609       98796.198       14892.737       2.6280000      0.95075010     -0.30200000       340.89600       1.9198447     0.012535959
