MIRICO/SHELL project - Processed LDS file generated on
Thu Jul 20 01:19:59 2017
Time stamp for record start
05/12/2017  09:48: 0.0000
Nb of points in the record
         563
Beam position index
       3.0000000
Beam angle (degrees)
     -0.96000000
Open Path length (m)
       44.550000
****************** Temporal data record ************************
Elapsedtime_sec Temp_K Press_Pa Humidity_ppmv WindX_m/s WindY_m/s WindZ_m/s Speedofsound_m/s CH4vmr_ppmv CH4vmrerror_ppmv  
      0.00000000       286.76999       98772.687       15146.635       3.9595000       1.0090000    -0.058750000       340.56700       2.0402304     0.010487161
       5.0000131       286.75006       98768.258       15137.480       3.1400000       1.2730000     -0.10375000       340.55900       2.0115558     0.010106129
       10.000026       286.73007       98767.509       15123.698       3.4072500       1.0137500     0.036000000       340.87500       2.0781140     0.010371218
       14.999999       286.68738       98768.300       15087.408       2.9292500       2.3485000     -0.36875000       341.04800       1.9028626     0.016680860
       20.000012       286.70034       98772.734       15083.644       2.8735000      0.89700000     0.058000000       340.99200       2.0766146     0.013927009
       25.000025       286.73803       98785.115       15085.529       3.3000000       1.0255000     -0.23325000       340.94000       1.9948649     0.011946529
       29.999998       286.87593       98793.455       15201.824       4.0502500      0.84575000      0.12550000       340.82900       2.0399026     0.013569435
       35.000011       286.92103       98800.536       15243.913       1.6380000     0.089000000     0.078250010       341.17400       2.0307873     0.010374068
       40.000024       286.89494       98810.187       15250.101       3.1345000      0.54400000      0.12775000       341.08300       1.9166320     0.013708249
       45.000038       286.90594       98816.308       15290.746       3.4975000      0.96625010      0.40625000       340.91400       1.9363543     0.015496647
       50.000010       286.90464       98819.972       15323.427       3.5210000     -0.97325000     0.097250010       340.94200       2.0747976     0.012544971
       55.000024       286.83704       98821.684       15295.289       3.7245000      0.42575000      0.34925000       340.87700       1.9751953     0.016716981
       61.000031       286.90409       98819.658       15426.263       4.9172500      0.69625000     -0.37375000       340.75100       2.0696768     0.010567114
       66.000004       286.91165       98815.411       15457.660       3.0647500       1.4397500     0.073000010       340.93500       2.0160163     0.011687087
       71.000017       286.83725       98805.644       15411.725       2.6287500      0.29175000    -0.046750000       340.88500       2.0200701     0.010439818
       76.000030       286.83941       98798.581       15393.830       3.9900000     -0.13550000    -0.087750000       340.71300       2.0464076    0.0099065183
       81.000003       286.84976       98791.683       15309.580       3.6362500     0.014250000     -0.30400000       340.77400       1.9902798    0.0099784607
       86.000016       286.89358       98783.801       15298.240       4.1620000      0.13775000    -0.031250000       340.65600       2.1043209     0.010332249
       91.000029       287.06236       98771.510       15365.661       2.7697500      0.87300000     -0.63475000       340.94200       2.0339350    0.0082911946
       96.000002       287.12815       98767.838       15393.766       3.2567500      0.77250000     0.034250000       340.93200       2.0631192    0.0094771764
       101.00002       287.17691       98767.431       15436.554       2.3935000      0.85100000      0.13475000       341.18500       1.9577638     0.010448002
       106.00003       287.17175       98768.836       15475.813       2.5027500      0.73450010     0.057250000       341.19700       2.0756007    0.0098666542
       111.00000       287.04277       98778.686       15497.551       2.3910000      0.88975010      0.35600000       341.35200       2.0820927    0.0095914518
       116.00001       286.98394       98786.724       15512.723       2.8160000      0.82350000     -0.18000000       340.75600       2.0352928     0.010274963
       121.00003       286.93355       98796.354       15568.970       2.1902500      0.64550000     0.028000000       341.07800       2.0480263    0.0091054649
       126.00000       286.88451       98802.334       15557.890       2.3407500       1.1807500      0.55075000       341.23900       2.0185006    0.0088670770
       131.00001       286.86634       98807.037       15476.403       2.2495000      0.58100000     0.064250000       340.96100       2.0430600     0.010378035
       136.00003       286.84669       98811.924       15418.831       3.8720000      0.50825000     -0.31200000       340.53700       2.0029211     0.012641936
       141.00000       286.83901       98813.757       15330.103       2.9880000       1.2697500     0.040500000       340.88000       1.9659086     0.014453910
       146.00001       286.79756       98815.844       15250.814       2.6782500      0.32750000      0.53275000       341.15600       2.0071480    0.0089209663
       152.00002       286.72367       98821.084       15177.512       2.7120000       1.2277500    -0.012500000       340.96400       1.9479300     0.012970777
       157.00003       286.68343       98821.361       15107.503       2.7980000      0.28225000     0.068250000       340.96300       2.0669332    0.0095251145
       162.00001       286.62224       98818.959       15031.569       2.3107500       1.1952500      0.16475000       341.25300       1.8977983     0.027807925
       167.00002       286.57588       98814.219       14944.891       1.7975000       2.1890000     0.012250000       340.92200       2.0733594     0.011168610
       172.00003       286.53625       98804.331       14807.317       2.9140000       2.1855000     -0.39000000       340.80900       1.9697333     0.011923408
       177.00001       286.54402       98797.338       14763.086       3.2722500       1.7840000      0.23800000       341.01000       1.9770624     0.011473086
       182.00002       286.58118       98787.383       14747.571       2.0835000       2.7097500      0.32250000       341.02800       2.0524674    0.0092473094
       187.00003       286.60475       98782.106       14755.043       2.9657500       1.2872500      0.40650000       340.76400       2.0687301    0.0094479435
       192.00000       286.68977       98780.757       14842.042       2.7457500       2.3830000    -0.035750000       340.51700       1.9824450     0.010548720
       197.00002       286.72205       98779.149       14914.220       2.7427500       1.2387500     -0.87175010       340.62700       1.8080706     0.020289089
       202.00003       286.69962       98779.108       15002.833      0.86425010       1.0192500      0.64650010       341.00700       2.0681982     0.011259019
       207.00000       286.69954       98780.562       15060.297       3.2900000      0.80000000    -0.031250000       340.98800       2.0583696     0.010027991
       212.00002       286.67432       98781.561       15104.157       3.0692500       1.7742500      0.10850000       340.67700       1.9780263     0.010781626
       217.00003       286.70153       98786.281       15175.210       3.6395000       2.0327500     -0.74050000       340.58500       2.0485709     0.011542038
       222.00000       286.78910       98797.470       15267.523       2.9757500       1.0120000     -0.25775000       340.80300       1.9684473     0.017165773
       227.00002       286.81508       98803.041       15298.542       2.8605000       1.2162500      0.27200000       340.94900       2.0572812    0.0095349280
       232.00003       286.83972       98812.184       15327.095       2.7060000      0.99875000     -0.47400000       340.75900       1.8985902     0.015142505
       238.00004       286.86946       98812.187       15345.163       1.9805000      0.37075000      0.27025000       341.27300       1.9940461     0.012020391
       243.00001       286.84371       98799.759       15297.651       2.5080000      0.23475000     -0.17775000       340.86700       1.9952443     0.010129962
       248.00002       286.85021       98799.087       15258.131       2.5355000      0.91800000     -0.16025000       340.97800       2.0160893     0.010748514
       253.00004       286.89956       98799.096       15219.225       3.0322500      0.34825000     -0.31300000       340.73400       2.0223863     0.010143528
       258.00001       286.91346       98800.403       15203.219       2.6997500      0.28950000      0.25725000       340.98900       1.8804656     0.021902555
       263.00002       286.92252       98812.474       15174.216       1.9535000      0.57975000     -0.37825000       341.23500       2.0309853    0.0096301167
       268.00003       286.89021       98811.994       15144.413      0.76800000       1.2565000      0.46725000       341.20500       2.0228472     0.011442793
       273.00001       286.81625       98803.004       15147.843       2.2840000      0.97675010     0.019250000       341.06100       1.8898671     0.018707902
       278.00002       286.77655       98797.419       15135.741       2.4930000      0.98075000    -0.090000000       341.19600       2.0589215     0.010577787
       283.00003       286.70202       98788.809       15080.494       2.2737500       1.4072500     -0.41025000       341.04800       1.9940670     0.012752302
       288.00001       286.67472       98780.813       15069.281       4.2362500       2.2737500     -0.36150000       340.57300       1.9987403     0.010159666
       293.00002       286.72163       98772.048       15122.981       3.1500000       1.2620000     -0.39800000       340.63000       2.0685799     0.010503258
       298.00003       286.68879       98766.643       15093.878       2.8935000       1.6410000    -0.017500000       340.89600       2.0841952    0.0094424780
       303.00001       286.60382       98758.049       15022.990       3.9105000       1.6482500      0.24675000       340.82800       1.9946220     0.013195353
       308.00002       286.57992       98758.452       14977.535       3.8372500      0.20400000    -0.065000010       340.44600       2.0667790    0.0096026523
       313.00003       286.53242       98767.650       14884.271       2.5287500      0.16350000      0.20500000       340.94200       1.9394847     0.013883461
       318.00001       286.54118       98773.274       14848.949       3.7142500       1.2455000     -0.42450000       340.61400       2.0109887     0.012046857
       323.00002       286.62912       98784.294       14854.474       3.8350000      0.99375000     -0.19000000       340.61000       2.0388910     0.010044264
       329.00003       286.68942       98789.747       14866.961       3.8542500       1.0282500     -0.87750010       340.52300       2.1354952     0.011415245
       334.00000       286.74907       98789.121       14897.697       3.4867500      0.36725000    -0.034500000       340.45400       1.9870484     0.011122154
       339.00001       286.78051       98794.171       14922.834       2.2880000      0.58750000      0.37250000       340.84000       2.0045224     0.010513013
       344.00003       286.80280       98799.706       14950.615       1.7835000      0.54450010      0.44650000       341.03300       2.0631136    0.0098344170
       349.00000       286.81394       98803.730       15008.563       2.0020000     -0.61525010     0.024250000       341.07000       2.0775702     0.012526703
       354.00001       286.80874       98810.866       15098.175       2.7255000     -0.60425000     -0.30000000       340.89200       2.0246762     0.011162906
       359.00002       286.78994       98813.058       15129.568       2.6465000     -0.36225000     -0.23125000       340.91900       2.0159756     0.010956350
       364.00004       286.75394       98810.441       15176.680       2.3710000     -0.42375000   -0.0092500000       340.83500       1.9519422     0.010948179
       369.00001       286.73403       98810.500       15171.761       2.9020000     -0.49575000     -0.15550000       340.56400       1.9427097     0.017090752
       374.00002       286.69754       98812.281       15097.165       2.3217500      0.22950000     -0.29375000       340.90900       2.0587624     0.010389196
       379.00004       286.68645       98808.513       15057.053       2.2432500      0.31525000     0.073000010       340.78000       2.1295198     0.012671297
       384.00001       286.70021       98801.221       15019.951       2.4420000     -0.39600000   -0.0045000000       340.84400       2.0521338     0.015110625
       389.00002       286.70027       98797.250       14972.403       1.3745000      0.66025000      0.36700000       340.98900       2.0261943     0.011555463
       394.00004       286.70949       98790.339       14925.546       2.0017500    -0.054500000    -0.039750000       340.95600       2.0454820     0.010189521
       399.00001       286.69118       98786.147       14850.337       2.5815000     -0.21000000     -0.16825000       340.88700       1.9470945     0.014049866
       404.00002       286.64495       98787.581       14732.504       1.9310000     -0.42275000      0.48100000       341.02500       2.0435038     0.010434963
       409.00003       286.64375       98781.911       14690.984       2.7670000     -0.17850000    -0.082250010       340.70200       1.9866610     0.010770729
       414.00001       286.63288       98770.800       14639.918       2.4567500     -0.34900000      0.57650000       340.82100       1.9796703     0.015472268
       420.00002       286.66967       98764.675       14669.215       2.2182500      0.52125000     0.013750000       341.04400       1.9712932     0.015423886
       425.00003       286.76175       98757.674       14776.870       2.2395000     -0.51175000      0.17400000       340.68700       2.0029581    0.0098132148
       430.00000       286.76926       98766.389       14869.711       3.1107500      0.89975010      0.64250000       341.13800       1.8201277     0.018790495
       435.00001       286.76184       98770.432       14926.802      0.98275010      0.57825010      0.37125000       341.20900       2.0628475    0.0096502433
       440.00003       286.68409       98777.455       14964.371       2.9182500     -0.11500000     -0.77175000       340.81600       1.9285174     0.015865750
       445.00000       286.64308       98781.660       14986.827       4.0082500      0.97100010     -0.34450000       340.54200       2.0378382    0.0095640536
       450.00001       286.61511       98775.813       14984.586       3.4440000      0.92750010     -0.15400000       340.60600       1.7573171     0.021620727
       455.00003       286.59395       98778.411       14967.524       2.9397500     -0.13375000     -0.12075000       340.74400       1.9836933     0.010792081
       460.00000       286.58508       98784.704       14936.379       3.2205000      0.66750000    -0.036250000       340.76900       2.0047500    0.0095925552
       465.00001       286.59973       98794.897       14899.257       3.7225000      0.67725000     -0.64425000       340.80200       2.0736266     0.011163397
       470.00003       286.59954       98800.891       14824.211       3.1022500    -0.047750000     -0.12100000       341.01000       1.9553870     0.014628504
       475.00000       286.59378       98811.460       14708.405       3.6135000      0.95575000     -0.36100000       340.83100       1.9739494     0.017218609
       480.00001       286.63081       98814.754       14630.436       4.4882500      0.72625010     -0.24400000       340.70100       1.9268742     0.012569251
       485.00002       286.65130       98815.890       14578.519       3.1935000       1.0707500      0.85925010       340.80000       2.1336210     0.010416306
       490.00000       286.68559       98814.256       14575.622       3.8327500      0.92050000     -0.59325000       340.61600       2.0659866    0.0094483904
       495.00001       286.70660       98815.204       14578.985       3.5697500       1.9237500      0.54600000       340.80300       1.9978182     0.010642337
       500.00002       286.71522       98816.152       14594.278       2.7887500    0.0067500000    -0.033250000       340.60400       1.9577828     0.013837219
       505.00004       286.69954       98815.192       14614.577       3.0112500      0.40275000      0.50250000       340.81000       2.0579392     0.011066518
       511.00000       286.70001       98818.586       14695.150       2.9707500      0.60025000      0.15150000       340.78500       2.0606603     0.011120510
       516.00002       286.69998       98816.155       14749.152       2.5657500      0.72500000      0.68425010       341.00100       2.1007797     0.014783009
       521.00003       286.69964       98804.300       14826.786       2.7262500     0.014750000      0.38500000       340.83900       2.0108456     0.011771277
       526.00000       286.69955       98798.368       14871.535       4.0270000     -0.21675000      0.48300000       340.93400       1.9883724     0.010953464
       531.00002       286.70032       98793.499       14892.733       3.0235000      -1.0425000    -0.024250000       340.70500       2.0611687     0.010619979
       536.00003       286.70028       98788.622       14904.744       2.7960000     -0.12175000     0.075000000       340.80400       2.0692260     0.012151054
       541.00000       286.70001       98789.820       14889.636       2.1792500    -0.088500000     0.028750000       340.84500       1.8062327     0.023442331
       546.00002       286.70001       98785.653       14880.268       2.1835000     0.054750000     0.033750000       341.09200       1.8650290     0.020306886
       551.00003       286.69975       98774.552       14872.432       3.4905000      0.73000000     -0.11300000       340.67400       2.0365771     0.012637566
       556.00000       286.69948       98768.612       14849.557       2.6552500       1.0500000      0.70850000       340.74300       1.9957079     0.011545545
       561.00001       286.70001       98759.360       14813.129       3.1705000       1.1427500      0.13225000       340.88700       1.9566930     0.015412569
       566.00003       286.69998       98757.752       14782.227       3.8605000      0.77500000     -0.12700000       340.75200       2.0699846    0.0098256408
       571.00000       286.68587       98767.168       14707.296       3.3410000      0.42725000      0.43975000       340.77500       2.1230563     0.011875274
       576.00001       286.69694       98771.204       14696.303       3.4012500      0.63775000     -0.15425000       340.58700       1.9687850     0.012856057
       581.00003       286.73434       98776.804       14740.815       3.8320000     -0.16025000     -0.19975000       340.57700       2.0861066     0.010334300
       586.00000       286.75421       98781.538       14768.758       3.1095000      0.14250000     0.083500010       340.69500       2.0070704    0.0087734906
       591.00001       286.79009       98780.649       14840.252       1.7390000     -0.56050000      0.37975000       340.85800       1.9117846     0.016413606
       596.00003       286.80846       98784.906       14886.966       1.4540000      0.45500000     0.061750000       340.98600       1.9132329     0.015186829
       602.00003       286.78739       98797.492       14899.382       2.4842500    -0.012500000     -0.18825000       340.96800       2.1433416     0.012916918
