MIRICO/SHELL project - Processed LDS file generated on
Thu Jul 20 02:24:05 2017
Time stamp for record start
05/12/2017  09:48: 0.0000
Nb of points in the record
         563
Beam position index
       4.0000000
Beam angle (degrees)
    -0.040000000
Open Path length (m)
       98.010000
****************** Temporal data record ************************
Elapsedtime_sec Temp_K Press_Pa Humidity_ppmv WindX_m/s WindY_m/s WindZ_m/s Speedofsound_m/s CH4vmr_ppmv CH4vmrerror_ppmv  
      0.00000000       286.76999       98772.687       15146.635       3.3112500       1.4965000     -0.45800000       340.52300       1.9723260     0.011267402
       5.0000131       286.75006       98768.258       15137.480       3.1052500       1.3357500    -0.075000000       340.62800       1.9630416     0.010797048
       10.000026       286.73007       98767.509       15123.698       3.1660000      0.92900000     0.028500000       340.85000       1.9411491    0.0094334963
       14.999999       286.68738       98768.300       15087.408       2.5770000       1.5477500     -0.33575000       340.75700       1.9528219    0.0098040754
       21.000007       286.70580       98778.686       15063.498       2.7677500      0.62450000    0.0080000000       340.94600       1.9610418    0.0097162611
       26.000020       286.74860       98786.724       15094.157       2.9862500       1.5265000    -0.052750000       340.87900       1.9242757     0.014276478
       31.000033       286.88803       98794.878       15211.849       3.8702500       1.0447500      0.72500000       340.91000       1.9815482    0.0097342292
       36.000006       286.92543       98801.942       15249.917       2.4315000      0.84975000    -0.099250000       340.88900       1.9666120    0.0088552718
       41.000019       286.89813       98811.608       15258.863       3.9767500      0.52950000     -0.10550000       341.15800       1.9653152    0.0094511736
       46.000032       286.90666       98817.238       15297.922       4.3197500       1.0572500      0.67225000       341.00000       1.9860212    0.0096073771
       51.000005       286.85271       98820.862       15282.501       3.8047500      0.65525000       1.1775000       341.04000       1.9511051    0.0092618802
       56.000018       286.83566       98821.638       15301.128       4.6885000       1.1835000      0.46225000       340.83000       1.9514547    0.0096720741
       61.000031       286.90409       98819.658       15426.263       4.5530000      0.42775000     -0.12475000       340.79900       1.9529273    0.0099877342
       66.000004       286.91165       98815.411       15457.660       3.1397500      0.70425000     -0.31900000       341.05200       1.9542307    0.0088319785
       71.000017       286.83725       98805.644       15411.725       2.9007500       1.6595000     -0.77025000       340.67400       1.9676893    0.0091867477
       76.000030       286.83941       98798.581       15393.830       4.0475000      0.14600000      0.10225000       340.71900       1.9484960     0.010894465
       81.000003       286.84976       98791.683       15309.580       4.4282500     -0.33375000      -1.0045000       340.74600       1.9600695    0.0091029725
       86.000016       286.89358       98783.801       15298.240       4.0460000     -0.11975000    -0.027500000       340.71600       1.9647997    0.0093807603
       91.000029       287.06236       98771.510       15365.661       2.6847500       1.6600000     -0.13200000       341.07700       1.9665071    0.0086670720
       96.000002       287.12815       98767.838       15393.766       3.0447500      0.88575010     -0.24525000       340.84500       1.9927906    0.0097391717
       101.00002       287.17691       98767.431       15436.554       2.9170000       2.0305000      -1.0355000       340.70700       1.9422320     0.010423419
       106.00003       287.17175       98768.836       15475.813       2.9997500      0.16350000     -0.21050000       341.08000       1.9665265     0.010028292
       112.00004       287.02999       98780.292       15500.745       2.6940000       1.2180000     -0.25600000       340.88700       1.9627651    0.0093847816
       117.00001       286.97368       98788.333       15515.526       2.8510000      0.89900000      0.19900000       340.95300       1.9583019    0.0079839482
       122.00002       286.92271       98797.657       15569.848       1.8010000    0.0092500000     0.099250000       341.20500       1.9540809    0.0097318846
       127.00004       286.87624       98803.370       15551.052       2.6497500      0.87125000     -0.27475000       340.82500       1.9517015    0.0098499957
       132.00001       286.86240       98808.111       15465.664       3.3290000       1.3085000     -0.49125000       340.65900       1.9415677     0.010601955
       137.00002       286.84277       98812.756       15406.154       4.0317500      0.62750010     -0.18400000       340.57900       1.9455990     0.011037115
       142.00003       286.83174       98814.169       15313.799       2.8680000       1.2665000    -0.031750000       340.78500       1.9476794    0.0097982449
       147.00001       286.78774       98816.270       15235.627       2.3270000    -0.089250010      0.14075000       341.24600       1.9460567    0.0091087384
       152.00002       286.72367       98821.084       15177.512       2.3887500      0.81725000      0.22225000       340.99600       1.9488679    0.0089296864
       157.00003       286.68343       98821.361       15107.503       3.2795000      0.61000000     0.050500000       340.75400       1.9597761     0.010376724
       162.00001       286.62224       98818.959       15031.569       1.7715000       1.3700000     0.059000000       341.29400       1.9548530     0.010395043
       167.00002       286.57588       98814.219       14944.891       1.8637500       2.0077500     -0.74125000       340.83400       1.9451077    0.0095344061
       172.00003       286.53625       98804.331       14807.317       2.5717500       2.4262500     0.077500000       340.81300       1.9447428    0.0097975893
       177.00001       286.54402       98797.338       14763.086       3.5572500       2.2545000      0.13675000       340.98600       1.9416381    0.0087863122
       182.00002       286.58118       98787.383       14747.571       3.4500000       2.9427500     -0.35625000       340.52500       1.9738878    0.0097204668
       187.00003       286.60475       98782.106       14755.043       3.4872500       2.1475000      0.20125000       340.45600       1.9469326    0.0092383269
       192.00000       286.68977       98780.757       14842.042       3.6550000       1.9722500    -0.033000000       340.73300       1.9525966     0.010234066
       197.00002       286.72205       98779.149       14914.220       2.2462500       1.7917500     -0.63525000       340.77500       1.9555866    0.0097038564
       203.00003       286.69960       98779.298       15014.985       1.5025000       1.4087500      0.21300000       341.04800       1.9489760    0.0086047898
       208.00000       286.69953       98781.004       15070.800       3.1395000      0.32000000      0.15500000       341.02800       1.9442674     0.010439639
       213.00001       286.67775       98782.307       15118.020       3.5810000       1.4485000     0.011500000       340.76900       1.9613082    0.0098505648
       218.00002       286.71000       98787.522       15189.950       3.6385000       1.6892500     -0.40100000       340.67200       1.9512613     0.010505544
       223.00004       286.79528       98798.683       15275.341       2.9382500      0.56825000     0.095500010       340.95800       1.9596285     0.010346216
       228.00001       286.81880       98804.007       15302.321       3.0782500       1.2082500    -0.086250010       340.80500       1.9541266     0.011902062
       233.00002       286.84595       98812.689       15332.571       2.7882500       1.0695000     -0.18300000       340.84300       1.9566084    0.0096465627
       238.00004       286.86946       98812.187       15345.163       2.6642500     -0.15375000    0.0090000010       340.94600       1.9686531    0.0092951295
       243.00001       286.84371       98799.759       15297.651       2.3970000      0.12000000      0.17550000       340.90800       1.9694393     0.010087673
       248.00002       286.85021       98799.087       15258.131       2.1777500      0.25875000     -0.30150000       341.19200       1.9875965    0.0090372720
       253.00004       286.89956       98799.096       15219.225       2.8992500      0.58925000     -0.17475000       340.74900       1.9608650    0.0096800338
       258.00001       286.91346       98800.403       15203.219       2.5512500       1.0740000     -0.10275000       341.13000       1.9585638     0.010444853
       263.00002       286.92252       98812.474       15174.216       1.7457500      0.65550010     -0.20425000       341.25800       1.9497454     0.011188514
       268.00003       286.89021       98811.994       15144.413       1.5272500       1.3382500      0.34100000       341.23700       1.9509257     0.011087820
       273.00001       286.81625       98803.004       15147.843       1.9525000      0.95300010     -0.10325000       341.05000       1.9560230     0.010623363
       278.00002       286.77655       98797.419       15135.741       2.4350000       1.0570000     -0.47825000       340.96800       1.9596164     0.010541212
       283.00003       286.70202       98788.809       15080.494       2.5885000      0.88150010    -0.034750000       341.01700       1.9660944     0.010011866
       289.00000       286.67227       98779.207       15069.320       4.0727500       1.7082500     -0.30325000       340.41600       1.9568365     0.010895929
       294.00001       286.71706       98770.866       15119.498       3.4710000       1.6730000     -0.45075000       340.75700       1.9653989    0.0097119923
       299.00003       286.67922       98765.713       15084.558       3.7232500      0.75925000    -0.084000010       340.61700       1.9533728     0.010834827
       304.00000       286.59798       98757.725       15014.356       4.3112500       1.0770000    -0.037750000       340.72800       1.9398081    0.0094493784
       309.00001       286.57673       98759.139       14967.758       3.5770000      0.40575000     0.013000000       340.47700       1.9535485    0.0098350581
       314.00003       286.53121       98768.675       14875.103       2.8885000      0.99425010   -0.0090000010       340.92900       1.9637490    0.0099405711
       319.00000       286.54736       98774.549       14845.028       3.2067500       1.0242500    -0.091250000       340.66400       1.9528035     0.010280807
       324.00001       286.63912       98785.447       14855.100       3.9792500       1.5617500     -0.42475000       340.46300       1.9567323     0.010098902
       329.00003       286.68942       98789.747       14866.961       3.6317500      0.97625010     -0.51450000       340.57700       1.9547525    0.0098906520
       334.00000       286.74907       98789.121       14897.697       3.1770000      0.13200000     -0.26900000       340.44700       1.9724673     0.011146387
       339.00001       286.78051       98794.171       14922.834       2.4712500      0.45425000     0.056000000       340.79800       1.9627525    0.0095454556
       344.00003       286.80280       98799.706       14950.615       1.7450000      0.23025000      0.55175000       341.10000       1.9752888     0.010171579
       349.00000       286.81394       98803.730       15008.563       2.0600000     -0.47525000      0.44375000       341.00600       1.9714357    0.0095665984
       354.00001       286.80874       98810.866       15098.175       2.6647500     -0.87950000     -0.20075000       340.52000       1.9650846     0.010383983
       359.00002       286.78994       98813.058       15129.568       2.7237500     -0.15950000      0.38300000       340.95300       1.9687583    0.0096115090
       364.00004       286.75394       98810.441       15176.680       1.7102500     -0.40850000      0.31400000       341.07100       1.9635098     0.010541491
       369.00001       286.73403       98810.500       15171.761       2.7392500     -0.19725000     -0.21200000       340.69100       1.9560114     0.011221647
       374.00002       286.69754       98812.281       15097.165       2.6232500      0.17450000    -0.052250000       340.69700       2.0057077    0.0099500809
       380.00003       286.68575       98807.455       15048.836       2.0247500      0.14350000     -0.40075000       340.75500       1.9354556     0.012258416
       385.00000       286.70022       98800.427       15010.923       2.1670000     -0.39525000     -0.12600000       340.90400       1.9694466     0.010078950
       390.00002       286.71514       98794.623       14974.190       2.0250000     0.011250000    -0.093750010       340.76100       1.9464327     0.011625203
       395.00003       286.70683       98789.397       14911.780       2.0525000     -0.64975010      0.32975000       341.03700       1.9607982     0.010816143
       400.00000       286.65481       98790.337       14783.253       2.9940000    -0.031250000    -0.064500000       340.85700       1.9485116     0.011072677
       405.00002       286.64372       98786.645       14722.256       2.1170000    -0.078000000      0.26700000       341.06000       1.9489308     0.010950799
       410.00003       286.64499       98780.481       14685.592       2.7295000      0.11750000     -0.24375000       340.78000       1.9487993    0.0098778207
       415.00000       286.63645       98769.661       14640.110       2.1370000      0.25600000      0.10675000       340.89000       1.9541095     0.010835500
       420.00002       286.66967       98764.675       14669.215       1.3397500      0.46800000      0.20575000       341.08400       1.9670465    0.0090759265
       425.00003       286.76175       98757.674       14776.870       2.1935000     -0.22000000      0.64050000       340.70800       1.9389891    0.0099643281
       430.00000       286.76926       98766.389       14869.711       3.1777500      0.10175000     0.063500000       340.83000       1.9454103     0.011029608
       435.00001       286.76184       98770.432       14926.802       1.3867500      0.79525010    -0.020750000       341.22600       1.9365167     0.012510970
       440.00003       286.68409       98777.455       14964.371       4.3450000      0.61625000     -0.81150000       340.47300       1.9618186     0.010359928
       445.00000       286.64308       98781.660       14986.827       3.5662500      0.98650000     -0.14075000       340.64000       1.9465316     0.010933235
       450.00001       286.61511       98775.813       14984.586       3.2530000      0.78225000    -0.078750010       340.63000       1.9502305    0.0097036683
       455.00003       286.59395       98778.411       14967.524       2.4615000    -0.062500000     -0.46075000       340.78100       1.9472276    0.0095471369
       460.00000       286.58508       98784.704       14936.379       2.8092500      0.87300000     -0.29050000       340.85700       1.9459426     0.010295378
       465.00001       286.59973       98794.897       14899.257       3.5325000      0.73800000     -0.15375000       340.85600       1.9437203     0.010706088
       471.00002       286.58579       98805.790       14764.773       2.3525000      0.63250010      0.55950000       341.04800       1.9363434    0.0091565237
       476.00003       286.59703       98812.628       14695.558       3.5497500       1.0255000    -0.072500010       340.84500       1.9454974    0.0088314150
       481.00001       286.63494       98815.085       14617.755       4.6550000      0.48350000     -0.12875000       340.58500       1.9540930    0.0091593299
       486.00002       286.65535       98815.963       14571.586       2.9005000       1.0690000      0.37700000       340.88800       1.9186383     0.010557036
       491.00003       286.69078       98814.445       14575.343       3.9840000      0.99475000     -0.47175000       340.60700       1.9459466    0.0092958645
       496.00001       286.70932       98815.394       14581.088       2.9780000     0.087750000      0.56200000       341.02200       1.9506278     0.010013370
       501.00002       286.69974       98816.016       14589.916       3.2055000     -0.11100000      0.10450000       340.79200       1.9548071    0.0095984923
       506.00003       286.69948       98814.987       14622.612       3.4372500      0.87800000     -0.82200000       340.63700       1.9511756     0.010760302
       511.00000       286.70001       98818.586       14695.150       3.2862500      0.28650000      0.51525000       340.81500       1.9463560     0.010209010
       516.00002       286.69998       98816.155       14749.152       3.1600000      0.47575000     -0.35200000       340.70600       1.9407358     0.010321949
       521.00003       286.69964       98804.300       14826.786       3.6430000     -0.49900000      0.46025000       340.77700       1.9449433    0.0094366185
       526.00000       286.69955       98798.368       14871.535       3.0065000       1.0580000      0.97475000       340.80100       2.0229861    0.0083357073
       531.00002       286.70032       98793.499       14892.733       3.1772500     -0.72900000      0.11700000       340.79100       1.9633624    0.0091546031
       536.00003       286.70028       98788.622       14904.744       2.4655000     -0.34175000    -0.048500000       340.79200       1.9518063    0.0093367110
       541.00000       286.70001       98789.820       14889.636       2.5835000      0.46225000      0.39050000       341.02900       1.9665001     0.010109635
       546.00002       286.70001       98785.653       14880.268       2.9382500      0.31150000      0.64625000       340.98300       1.9386550     0.010691526
       551.00003       286.69975       98774.552       14872.432       3.1657500      0.88700000      0.33700000       340.64900       1.9496723     0.010606406
       556.00000       286.69948       98768.612       14849.557       3.3285000       1.3335000     -0.10650000       340.51900       1.9554928    0.0099363246
       562.00001       286.70001       98758.640       14807.176       3.2950000       1.2695000      0.40275000       340.79100       1.9532491    0.0099325954
       567.00002       286.69997       98758.028       14775.706       3.9490000    -0.054750000     -0.27150000       340.69000       1.9525455    0.0091572773
       572.00004       286.68708       98767.979       14702.472       3.9505000      0.18700000     -0.13425000       340.44900       1.9457653    0.0099676050
       577.00001       286.70066       98772.006       14698.043       3.0750000     0.056000000     0.090250010       340.70900       1.9358447     0.011064386
       582.00002       286.73832       98777.852       14745.431       3.7372500      0.34600000     -0.10175000       340.68700       1.9653464    0.0097084496
       587.00003       286.75818       98782.333       14775.807       3.5352500      0.26275000      0.25525000       340.66400       1.9489085     0.010617522
       592.00001       286.79478       98781.296       14850.590       1.5647500     -0.31800000      0.47450000       340.91700       1.9557655     0.010471451
       597.00002       286.81062       98786.064       14894.811       1.6425000      0.75075010      0.29825000       340.98300       1.9856146     0.011120347
       602.00003       286.78739       98797.492       14899.382       2.3292500      0.85600010      0.76650010       340.94800       1.9561026    0.0097931040
