MIRICO/SHELL project - Processed LDS file generated on
Thu Jul 20 00:38:01 2017
Time stamp for record start
05/12/2017  09:48: 1.0001
Nb of points in the record
         563
Beam position index
       5.0000000
Beam angle (degrees)
       8.5250000
Open Path length (m)
       83.010000
****************** Temporal data record ************************
Elapsedtime_sec Temp_K Press_Pa Humidity_ppmv WindX_m/s WindY_m/s WindZ_m/s Speedofsound_m/s CH4vmr_ppmv CH4vmrerror_ppmv  
      0.00000000       286.76600       98771.507       15145.175       3.5100000       1.3925000     -0.13675000       340.64800       1.9414740     0.010945235
       4.9999729       286.74606       98767.814       15135.093       3.0860000      0.89650010     0.085250010       340.65200       1.9613336     0.010036576
       9.9999860       286.69523       98767.493       15099.293       3.2477500       1.1547500     -0.28950000       340.84100       1.9007808     0.015057663
       14.999999       286.68795       98768.882       15085.670       3.1392500       1.7420000     -0.36950000       340.77900       1.9668557     0.013822524
       19.999972       286.70580       98778.686       15063.498       3.0985000      0.29475000     -0.37800000       340.79100       1.9638782     0.011095783
       24.999985       286.74860       98786.724       15094.157       3.3065000       1.2255000     -0.16325000       340.56700       1.9780476    0.0095953397
       29.999998       286.88803       98794.878       15211.849       3.4750000       2.1202500     -0.35150000       341.02100       1.9340931     0.012795578
       34.999971       286.92543       98801.942       15249.917       3.4710000     -0.12475000     -0.66000000       341.03100       1.8955429     0.016986102
       39.999984       286.89813       98811.608       15258.863       2.9267500      0.74050000     -0.60500000       340.99000       1.9513489     0.010261208
       44.999997       286.90666       98817.238       15297.922       4.8477500       1.8305000    -0.081000000       340.67700       1.9260887     0.010630415
       49.999970       286.85271       98820.862       15282.501       3.4387500     -0.15400000     -0.15750000       340.74000       1.9813991     0.010445277
       54.999983       286.83566       98821.638       15301.128       4.5155000      0.82525000     -0.62000000       340.71200       1.9545505    0.0099605519
       59.999996       286.90409       98819.658       15426.263       4.6275000      0.90875010    -0.054500000       340.84200       1.9616791     0.011731017
       64.999969       286.91165       98815.411       15457.660       3.5425000      0.97025010    -0.092500000       341.05100       1.9557511     0.010614127
       70.999977       286.83565       98804.225       15408.863       3.4302500       1.8825000     0.081000000       341.00400       1.9396999     0.010397387
       75.999990       286.84290       98797.178       15389.170       3.8360000       1.2242500    -0.019750000       340.84400       1.9601195    0.0099150574
       80.999963       286.85557       98790.106       15304.342       3.4590000     -0.88625000     -0.94600000       340.74400       1.9368140     0.012649531
       85.999976       286.90678       98782.225       15300.422       4.2357500      0.47950000     -0.54525000       340.73200       1.9608729     0.011208677
       90.999989       287.07847       98770.482       15371.224       3.2680000       1.6122500     -0.58625000       340.57300       1.9531409     0.012008672
       96.000002       287.13688       98767.543       15399.487       2.8515000      0.91725000      0.23725000       341.00200       1.9612099     0.011779575
       100.99998       287.17995       98767.405       15445.009       2.0260000       1.5557500      0.20300000       340.85300       1.9759762    0.0091859053
       105.99999       287.16462       98769.578       15482.740       2.2142500      0.26550000      0.60850000       341.23600       1.9427275     0.012264707
       111.00000       287.02999       98780.292       15500.745       2.8662500      0.98775010     0.044500000       340.95800       1.9768959     0.013129197
       115.99997       286.97368       98788.333       15515.526       2.7845000       1.2062500     -0.15950000       340.75800       1.9654481     0.012496436
       120.99999       286.92271       98797.657       15569.848       1.5602500    -0.042000000      0.28975000       341.30800       1.9889499    0.0085715130
       126.00000       286.87624       98803.370       15551.052       2.7992500      0.18600000     0.042000000       341.05100       1.9372493    0.0090410616
       130.99997       286.86240       98808.111       15465.664       3.1765000       1.1345000     -0.51900010       340.88600       1.9640954     0.011137621
       135.99999       286.84277       98812.756       15406.154       3.7420000      0.50225000    -0.089750010       340.66900       1.9412176     0.011585153
       141.00000       286.83174       98814.169       15313.799       3.0947500       1.1822500    -0.049500000       340.80900       1.9737367     0.010541025
       145.99997       286.78774       98816.270       15235.627       2.9792500      0.66150000     0.031250000       340.98800       1.9595059     0.012610298
       150.99999       286.72367       98821.084       15177.512       2.1075000      0.75825010      0.88450000       341.15900       1.9355956     0.011184304
       156.00000       286.68343       98821.361       15107.503       2.9725000    0.0090000010     0.068250000       341.00400       1.9261132     0.011268269
       161.99997       286.61194       98818.209       15014.732       1.6575000       1.5210000      0.33375000       341.11600       1.9542929     0.011261599
       166.99998       286.56815       98812.975       14926.805       1.8505000       1.2285000     -0.10700000       341.34000       1.9403952    0.0099869027
       171.99999       286.53583       98802.932       14795.442       2.9305000       2.3815000     -0.22350000       340.87500       1.9506587    0.0099548181
       176.99997       286.54853       98795.940       14758.776       2.3285000       2.2417500      0.30600000       341.07400       1.9458526     0.011102213
       181.99998       286.58491       98786.131       14746.082       3.9852500       1.8005000     -0.16950000       340.69500       1.9678249     0.010111377
       186.99999       286.61094       98781.346       14761.018       2.7725000       2.3270000     -0.29050000       340.68400       1.9715566     0.010022732
       191.99996       286.69824       98780.335       14855.968       4.5267500       2.2062500    -0.060500000       340.62900       1.9774932    0.0094743781
       196.99998       286.72549       98778.979       14929.413       2.7085000       1.4615000     -0.92300000       340.64000       1.9672633     0.012293302
       201.99999       286.69960       98779.298       15014.985       1.7062500       1.2080000      0.27775000       341.17400       1.9540665     0.010040437
       206.99996       286.69953       98781.004       15070.800       3.0887500      0.64850000      0.37000000       340.82300       1.9721966     0.010582492
       211.99998       286.67775       98782.307       15118.020       3.2365000       1.4462500      0.14000000       340.86500       1.9764689     0.010617561
       216.99999       286.71000       98787.522       15189.950       4.0272500       2.1297500     -0.18600000       340.63900       1.9861125    0.0099646784
       222.00000       286.79528       98798.683       15275.341       2.6787500      0.93225000      0.12875000       340.85800       1.9640867     0.013971299
       226.99998       286.81880       98804.007       15302.321       3.0575000       1.3240000     -0.25775000       340.78500       1.9619407     0.010360099
       231.99999       286.84595       98812.689       15332.571       2.8400000      0.90550010     -0.49750000       340.84300       1.9463892     0.012913630
       237.00000       286.86946       98812.187       15345.163       2.7520000     -0.25025000     -0.20300000       340.66900       1.9671317    0.0095024449
       241.99997       286.84371       98799.759       15297.651       2.4637500      0.21750000      0.22075000       340.82200       1.9738298     0.012023521
       246.99999       286.85021       98799.087       15258.131       2.3807500     -0.23225000    -0.079000000       341.15800       1.9643831     0.010317209
       253.00000       286.90335       98799.158       15215.704       2.5075000     0.072500010     -0.41150000       340.82400       1.9912973     0.011144302
       257.99997       286.91472       98800.963       15200.499       2.4030000       1.2512500      0.21000000       341.20000       1.9654396     0.011674318
       262.99998       286.91802       98812.770       15167.735       1.6877500      0.44350000     -0.31400000       341.22400       1.9810038     0.011044045
       267.99999       286.88079       98811.310       15139.230       1.3620000       1.1380000      0.59400000       341.30200       1.9718611     0.010182513
       272.99997       286.80831       98801.985       15146.053       2.0847500      0.79150000     -0.27625000       340.83100       1.9458119     0.013714923
       277.99998       286.76861       98796.155       15132.377       2.0532500       1.2392500     -0.10500000       341.16300       1.9382751     0.017541902
       282.99999       286.69455       98787.214       15076.730       2.4032500      0.48900000     -0.18625000       341.24600       1.9288168     0.010298332
       287.99997       286.67227       98779.207       15069.320       4.0017500       1.7192500     -0.18550000       340.40800       1.9604528     0.010454878
       292.99998       286.71706       98770.866       15119.498       3.8562500       1.2892500      0.12025000       340.86800       1.9464835     0.010720292
       297.99999       286.67922       98765.713       15084.558       4.1085000      0.86800000      0.42750000       340.73700       1.9620760     0.010395548
       302.99997       286.59798       98757.725       15014.356       3.7945000       1.7002500     -0.12975000       340.56800       1.9586737     0.010809355
       307.99998       286.57673       98759.139       14967.758       3.5300000      0.37125000     0.070250000       340.51100       1.9606073     0.011529344
       312.99999       286.53121       98768.675       14875.103       2.8377500      0.53375000    -0.049500000       340.96500       1.9354758     0.012452359
       317.99996       286.54736       98774.549       14845.028       3.1000000      0.71375000     -0.15975000       340.64700       1.9438900     0.011013098
       322.99998       286.63912       98785.447       14855.100       3.9795000       1.4862500     -0.45000000       340.48200       1.9610190     0.012370399
       327.99999       286.68942       98789.747       14866.961       3.2815000      0.69750010     -0.38025000       340.63300       1.9784420     0.010033028
       332.99996       286.74907       98789.121       14897.697       3.1385000    -0.061750000    -0.051000000       340.52900       1.9257918     0.011632794
       337.99998       286.78051       98794.171       14922.834       2.4265000    -0.024500000    0.0092500000       340.77200       1.9971677     0.011667031
       343.99998       286.80604       98800.515       14960.916       1.9657500      0.24525000      0.15000000       340.95200       1.9910429     0.012794423
       349.00000       286.81489       98807.332       15061.527       2.3222500      0.33025000      0.15825000       340.82000       1.9515518    0.0092609729
       353.99997       286.80596       98811.502       15105.738       2.5502500     -0.57525000    -0.011500000       340.88100       1.9911481     0.015222813
       358.99998       286.76986       98810.394       15156.109       2.3487500     -0.16075000     -0.39500000       340.69400       1.9662967     0.010490667
       364.00000       286.74996       98810.453       15178.415       3.2017500      -1.0110000     -0.66075000       340.76400       1.9432461     0.010043776
       368.99997       286.73005       98810.512       15166.704       2.9892500     -0.55275010     -0.12050000       340.61200       1.9785572    0.0099865501
       373.99998       286.69431       98811.731       15089.270       2.3892500      0.72800000     0.079000000       340.82200       1.9415313     0.011048481
       379.00000       286.68575       98807.455       15048.836       2.0870000      0.54150000      0.35700000       340.95700       1.9595239    0.0090376082
       383.99997       286.70022       98800.427       15010.923       2.3300000     -0.15850000    -0.098250000       340.84200       1.9758348     0.013358221
       388.99998       286.71514       98794.623       14974.190       1.8847500     -0.29100000     0.018250000       340.94300       1.9513011    0.0093682342
       394.00000       286.70683       98789.397       14911.780       2.9300000     -0.69975000     -0.18250000       340.88800       1.9554261     0.010883938
       398.99997       286.65481       98790.337       14783.253       2.4947500     0.055000000     -0.12050000       340.96100       1.9509303     0.012549445
       403.99998       286.64372       98786.645       14722.256       2.2112500     -0.22075000      0.26775000       341.11300       1.9306472     0.012039448
       408.99999       286.64499       98780.481       14685.592       2.3932500     -0.55750000     -0.13025000       340.67100       1.9463903     0.012508196
       413.99997       286.63645       98769.661       14640.110       1.9325000      0.27500000      0.40075000       340.92700       1.9289947    0.0096923366
       418.99998       286.66967       98764.675       14669.215       1.6087500      0.61575000    -0.073500000       340.95800       1.9646317    0.0099172831
       423.99999       286.76175       98757.674       14776.870       2.4752500      0.11050000      0.29950000       340.76700       1.9741805     0.010065665
       430.00000       286.76977       98767.201       14882.670       2.4530000      0.13675000     -0.12075000       340.96400       1.9645713     0.010008033
       434.99997       286.75736       98771.236       14935.898       1.2437500       1.4202500      0.54900000       340.91800       1.9693921    0.0094896170
       439.99999       286.67491       98778.492       14970.429       3.0735000      0.96800010      0.60575000       340.97700       1.9740177    0.0089163327
       445.00000       286.63635       98782.206       14988.982       4.1962500      0.96350000     -0.60525000       340.71300       1.9206478     0.010339164
       449.99997       286.60989       98776.037       14982.302       3.2652500      0.87725000     0.026250000       340.72900       1.9704716     0.014000188
       454.99999       286.59119       98779.374       14962.421       2.7185000      0.49400000     0.035000000       340.89100       1.9492700     0.012165709
       460.00000       286.59984       98790.153       14941.313       2.7782500      0.96700010     -0.30575000       340.92300       1.9416224     0.010544287
       464.99997       286.59969       98796.090       14886.245       3.3495000      0.38325000     -0.75525000       340.86500       1.9776654    0.0091050922
       469.99999       286.58579       98805.790       14764.773       2.6855000      0.95500000      0.22400000       340.93800       1.9285451     0.015479784
       475.00000       286.59703       98812.628       14695.558       3.8840000       1.3960000      0.37875000       340.87800       1.8754113     0.017135364
       479.99997       286.63494       98815.085       14617.755       4.0510000      0.75125000      0.13950000       340.74800       1.9347131     0.010242607
       484.99998       286.65535       98815.963       14571.586       2.5642500      0.63975000      0.21075000       340.94400       1.9447843     0.010901158
       490.00000       286.69078       98814.445       14575.343       3.7037500      0.14925000     -0.64275000       340.76300       1.9824292     0.012784464
       494.99997       286.70932       98815.394       14581.088       2.5165000      0.38400000      0.88450000       340.87900       1.9501602     0.010795598
       499.99998       286.69974       98816.016       14589.916       3.0917500    0.0062500000     -0.19575000       340.94000       1.9592546    0.0097085329
       505.00000       286.69948       98814.987       14622.612       3.2977500     -0.41225000      0.79975000       340.77800       1.9605893     0.010152294
       509.99997       286.70001       98818.586       14695.150       2.9422500      0.31075000      0.23725000       340.87700       1.9689708     0.011076018
       514.99998       286.69998       98816.155       14749.152       3.9635000      0.13975000     -0.40100000       340.70800       1.9731228     0.010455017
       520.99999       286.69962       98803.005       14837.248       3.1140000      0.63475000     -0.68825000       340.85000       1.9625189    0.0093542153
       525.99996       286.69954       98797.343       14878.217       3.2575000     -0.74725000      0.31325000       340.97500       1.9486546    0.0083373337
       530.99998       286.70031       98792.427       14896.270       3.1557500     -0.24850000   -0.0092500000       340.88600       1.9338064     0.010440196
       535.99999       286.70027       98787.791       14905.445       3.2170000     -0.40675000    -0.076250000       340.84000       1.9802885     0.010389323
       541.00000       286.70001       98789.184       14888.051       2.6792500      0.41825000     -0.15425000       340.87100       1.9128660     0.013536046
       545.99998       286.70001       98784.523       14877.962       2.7500000     -0.94225010      0.22650000       340.89700       1.9581927     0.010796129
       550.99999       286.69970       98773.270       14868.546       2.8672500       1.0570000      0.38200000       340.86800       1.9329775    0.0098270315
       556.00000       286.69942       98767.566       14843.948       3.7542500       1.2810000     -0.12650000       340.67100       1.9627188     0.010062837
       560.99997       286.70001       98758.640       14807.176       4.1062500      0.73725000     -0.16200000       340.71200       1.9590356     0.010905976
       565.99999       286.69997       98758.028       14775.706       3.9005000    0.0047500000     -0.38075000       340.58400       1.9482968    0.0091818955
       571.00000       286.68708       98767.979       14702.472       3.9037500     -0.42775000     -0.53650000       340.69700       1.9521149    0.0096975260
       575.99997       286.70066       98772.006       14698.043       2.5467500     -0.25575000      0.71150000       340.92600       1.9273073    0.0094204522
       580.99999       286.73832       98777.852       14745.431       3.3707500      0.13450000    -0.034500000       340.48400       1.9528782     0.015417261
       586.00000       286.75818       98782.333       14775.807       3.5090000     0.039750000     -0.28700000       340.66300       1.9498507     0.010690975
       590.99997       286.79478       98781.296       14850.590       1.5385000      0.10150000      0.23450000       340.94000       1.8892391     0.012468810
       595.99999       286.81062       98786.064       14894.811       1.2042500       1.0055000      0.35650000       340.94900       1.9471529    0.0096334136
       601.00000       286.78739       98797.492       14899.382       2.9765000       1.4777500      0.10625000       340.74200       1.9131066     0.011931715
