MIRICO/SHELL project - Processed LDS file generated on
Thu Jul 20 13:50:36 2017
Time stamp for record start
05/12/2017  09:48: 2.0001
Nb of points in the record
         563
Beam position index
       7.0000000
Beam angle (degrees)
       19.274000
Open Path length (m)
       33.730000
****************** Temporal data record ************************
Elapsedtime_sec Temp_K Press_Pa Humidity_ppmv WindX_m/s WindY_m/s WindZ_m/s Speedofsound_m/s CH4vmr_ppmv CH4vmrerror_ppmv  
      0.00000000       286.76202       98770.474       15143.529       3.5782500       1.4885000      0.12175000       340.45700       1.9470804     0.020219341
       4.9999729       286.74207       98767.516       15132.521       2.6812500      0.46200000    -0.064000000       340.66200       1.9657195     0.015761934
       9.9999860       286.69175       98767.466       15095.580       2.4682500       1.3207500     -0.33350000       340.92100       1.9404457     0.019549698
       14.999999       286.68953       98769.617       15084.425       2.6532500      0.90250000     -0.19825000       340.81000       2.0156750     0.015669590
       19.999972       286.71235       98780.292       15067.136       2.8670000      0.62450000      0.15525000       341.07900       1.9930686     0.020065115
       24.999985       286.76017       98788.333       15104.037       3.7960000      0.45700000     0.047750000       341.06100       1.9320144     0.028508464
       29.999998       286.89859       98796.298       15221.070       3.6035000       1.0557500     -0.56825000       341.01600       1.8364584     0.031099636
       34.999971       286.92828       98803.345       15255.113       3.6285000      0.26025000     -0.12275000       340.72900       1.9875568     0.013271254
       39.999984       286.90082       98812.930       15267.309       2.5142500       1.8430000    -0.064000000       341.16700       1.7463549     0.037554418
       44.999997       286.90689       98818.069       15304.779       4.0440000      0.82250010     -0.96100000       340.52500       1.8875807     0.023612654
       49.999970       286.84727       98821.218       15284.115       3.9292500      0.67175000      0.82275000       340.94300       2.0064204     0.027837278
       54.999983       286.83531       98821.492       15308.025       5.1202500      0.85075000      -1.0910000       340.70800       2.0572511     0.011980748
       59.999996       286.90759       98819.006       15435.860       3.7667500       1.2567500      0.34700000       340.67400       1.8873384     0.030541181
       64.999969       286.91016       98814.267       15458.957       2.6172500      0.81425010     -0.31550000       341.06600       1.8716153     0.030748343
       69.999982       286.83565       98804.225       15408.863       3.0577500       1.2845000      0.34150000       341.06600       1.9066130     0.023828892
       74.999996       286.84290       98797.178       15389.170       4.0747500      0.63750000    -0.052500000       340.92000       1.9780799     0.016144271
       81.000003       286.86286       98788.530       15300.591       3.0115000      0.35950000     -0.36600000       340.86000       1.8342738     0.026808177
       85.999976       286.92145       98780.649       15304.087       3.6537500     -0.39175000      0.70575000       340.79100       1.9958201     0.015983619
       90.999989       287.09310       98769.601       15376.813       3.0810000      0.80425010     -0.30000000       340.77000       1.8087263     0.038279746
       96.000002       287.14413       98767.395       15405.246       2.8865000      0.78775010     -0.27150000       340.92500       2.0135320     0.028508555
       100.99998       287.18095       98767.533       15453.165       2.6702500       1.7330000      0.75025000       341.03700       1.9983895     0.017277447
       105.99999       287.15545       98770.472       15489.347       1.8677500      0.22250000      0.22925000       341.08900       1.8844170     0.035548958
       111.00000       287.01772       98781.899       15503.857       3.2357500       1.0622500    0.0025000000       340.80800       1.9051062     0.028929205
       115.99997       286.96393       98789.943       15518.257       3.0665000       1.3387500    -0.016750000       341.02000       1.8499689     0.033342502
       120.99999       286.91239       98798.906       15569.174       1.0582500     -0.13450000      0.86875000       341.20500       1.8246682     0.039787555
       126.00000       286.86850       98804.353       15542.682       2.5940000      0.56900000    -0.022250000       341.00300       2.4316400     0.040087629
       130.99997       286.85847       98809.136       15454.537       2.1975000      0.28325000      0.16675000       341.19800       1.9833816     0.016671328
       135.99999       286.83885       98813.540       15393.092       3.4290000      0.53000000      0.34650000       340.73600       1.9212357     0.041251358
       141.00000       286.82397       98814.584       15297.717       2.5745000       1.0315000     -0.18350000       340.57000       1.9300272     0.039673663
       145.99997       286.77740       98816.698       15220.664       2.7300000       1.2182500     -0.11075000       340.65300       2.0705874     0.014983157
       150.99999       286.71561       98821.338       15163.941       2.0072500      0.58450000      0.42950000       341.25400       1.8983631     0.039338631
       156.00000       286.67539       98821.118       15092.857       3.2425000    -0.043750000      0.31775000       340.86100       1.7924349     0.046153132
       160.99997       286.61194       98818.209       15014.732       2.6552500      0.75250010     -0.33100000       341.12200       1.8714731     0.038223586
       165.99998       286.56815       98812.975       14926.805       2.5617500      0.71525000      0.12675000       341.25200       2.0360069     0.013371968
       171.99999       286.53640       98801.534       14785.083       2.3032500       1.5552500      0.29425000       341.01000       2.1043542     0.016211802
       177.00001       286.55402       98794.541       14755.976       3.0155000       2.1347500     -0.53500000       341.08600       1.8673163     0.034535971
       181.99998       286.58914       98784.977       14746.084       2.6332500       2.7200000     -0.38500000       340.59500       2.0608702     0.017803161
       186.99999       286.61762       98780.684       14768.490       2.1652500       2.0430000     -0.23125000       340.70100       1.9643123     0.018360970
       192.00000       286.70570       98779.962       14870.150       3.3827500       1.7057500    -0.091250000       340.67600       1.8470987     0.040721708
       196.99998       286.72792       98778.860       14944.856       2.4560000       1.4472500    -0.010000000       340.76900       1.9697196     0.031729756
       201.99999       286.69958       98779.538       15026.808       1.8260000       2.3755000    -0.080250000       340.62500       2.0764021     0.017589850
       207.00000       286.69953       98781.497       15080.973       2.5867500       1.6562500    -0.077750000       341.01900       1.8767631     0.029055919
       211.99998       286.68219       98783.153       15132.055       3.0990000       1.1645000     -0.10475000       340.85500       1.9754768     0.026363417
       216.99999       286.71947       98788.861       15204.870       3.6150000       1.3635000     -0.27725000       340.71000       2.0851360     0.017681514
       222.00000       286.80097       98799.847       15282.353       2.7695000       1.3647500     -0.44200000       340.74200       2.2054435     0.024895815
       226.99998       286.82203       98804.923       15305.290       2.6967500      0.71400000     -0.31650000       340.71700       2.0616376     0.014700943
       231.99999       286.85167       98812.992       15337.062       3.1375000       1.2722500     -0.54975000       340.95700       1.8544332     0.021064647
       237.00000       286.87264       98811.481       15344.719       2.7150000     -0.66700010     -0.12350000       340.93700       1.9585994     0.016852347
       241.99997       286.84400       98799.421       15290.073       1.8400000      0.19225000    0.0092500000       340.89000       1.9824806     0.019432944
       246.99999       286.85303       98799.258       15249.735       1.9827500      0.48000000     -0.14500000       341.04800       1.9969719     0.019226892
       252.00000       286.90335       98799.158       15215.704       2.0132500      0.13750000      0.38625000       340.95300       1.9838339     0.023797638
       256.99997       286.91472       98800.963       15200.499       2.1987500      0.68225000      0.53075000       341.33100       1.9503219     0.022782763
       262.99998       286.91254       98812.870       15161.515       2.4465000      0.51575010    -0.047250000       340.92000       1.9827478     0.023833559
       267.99999       286.84007       98805.769       15151.312       2.2185000       1.2650000    0.0077500000       341.07500       1.8870704     0.035619123
       273.00001       286.80037       98800.917       15143.947       1.7375000       1.1897500    0.0042500000       341.01700       1.9454791     0.016890449
       277.99998       286.76067       98794.842       15128.699       2.2477500       1.0197500     -0.50175010       340.72600       2.0167150     0.022920737
       282.99999       286.68809       98785.617       15073.726       3.0427500      0.65350000      0.13375000       341.23000       1.9405831     0.022694378
       288.00001       286.67083       98777.598       15070.121       3.2952500       1.5717500      0.20100000       340.79500       2.0403554     0.014989505
       292.99998       286.71149       98769.734       15114.845       2.9747500       1.4820000     -0.28125000       340.80000       1.9586233     0.023909546
       297.99999       286.62450       98760.234       15047.520       4.2390000       2.4120000      0.80425010       340.75200       1.7777357     0.035399046
       303.00001       286.59267       98757.603       15005.493       3.9920000       1.7067500    -0.012750000       340.59200       1.8773573     0.025241153
       307.99998       286.54488       98764.876       14918.121       3.2872500      0.75575010  -0.00075000000       340.57900       2.0400680     0.015490287
       312.99999       286.53149       98769.749       14866.990       3.1125000       1.1327500     -0.19000000       340.85400       1.9505019     0.024059432
       318.00001       286.55502       98775.874       14842.150       3.2705000      0.83400010     0.052250000       340.83700       2.0037583     0.014921642
       322.99998       286.64915       98786.503       14856.307       3.5410000       1.1190000     -0.20950000       340.56900       1.9204104     0.036313829
       327.99999       286.69953       98790.314       14871.087       3.3330000      0.14725000    -0.049000000       340.75300       1.9674179     0.019744192
       333.00000       286.75637       98790.030       14902.262       3.2932500      0.40500000     -0.26600000       340.52000       1.9401024     0.023257065
       337.99998       286.78476       98796.447       14915.865       2.0992500      0.70125000      0.16125000       340.93400       2.0674433     0.013104318
       342.99999       286.80604       98800.515       14960.916       2.0280000    -0.014250000     0.036000000       341.02300       2.0754710     0.016739197
       348.00000       286.81489       98807.332       15061.527       2.0542500     -0.25975000     -0.18525000       340.75000       2.0421887     0.015829718
       353.99997       286.80270       98812.039       15112.659       2.4100000     -0.64850000      0.52600000       340.87200       2.0121885     0.025957398
       358.99998       286.76588       98810.406       15163.298       3.0357500      0.35200000     -0.30375000       340.53300       1.9278597     0.030089764
       364.00000       286.74598       98810.465       15178.790       2.4280000      0.33175000      0.64250000       340.82800       1.9568603     0.020146898
       368.99997       286.71022       98813.322       15120.474       2.5677500    -0.057500000     -0.15275000       340.70700       1.8940238     0.030776687
       373.99998       286.69160       98811.079       15081.312       2.2980000      0.44500000      0.31875000       340.90200       2.0217432     0.017907602
       379.00000       286.70020       98803.603       15045.588       2.1377500      0.51700000      0.26725000       341.10600       1.9493557     0.024847513
       383.99997       286.70023       98799.633       15001.655       2.3407500      0.29075000      0.18175000       340.87700       2.0572158     0.016127837
       388.99998       286.71448       98793.474       14962.995       2.6962500      0.54900000      0.17825000       340.87700       2.0626417     0.016918390
       394.00000       286.70367       98788.507       14897.374       2.6697500     -0.30250000      0.10400000       340.77400       1.8605713     0.043350954
       398.99997       286.65161       98789.796       14769.100       2.8265000     -0.58650000    -0.085000000       340.88600       2.0037813     0.018097835
       403.99998       286.64299       98785.610       14712.981       2.0445000      0.35125000     -0.20675000       341.15600       2.0786209     0.017198921
       408.99999       286.62829       98774.500       14650.584       2.5730000      0.37825000     -0.55825000       340.74400       1.9118878     0.027662429
       414.00001       286.64105       98768.570       14642.176       2.2707500       1.3795000     -0.19700000       340.85400       1.9106793     0.025554267
       418.99998       286.73782       98759.328       14729.591       2.2875000      0.42025000      0.30225000       340.92700       2.0557666     0.012372725
       423.99999       286.76523       98757.759       14789.237       2.6315000     -0.45775000     -0.18400000       340.76800       2.0059089     0.013867807
       429.00001       286.76977       98767.201       14882.670       2.5735000      0.61900000      0.30675000       340.96500       1.9738737     0.020329922
       433.99998       286.75736       98771.236       14935.898       2.0215000    -0.010750000      0.46225000       341.09500       1.3747881     0.063771560
       438.99999       286.67491       98778.492       14970.429       2.8990000      0.69400000      0.44400000       340.91600       2.0482080     0.015436074
       445.00000       286.63010       98782.654       14990.362       3.2450000      0.64125000     -0.49525000       340.62000       1.8557482     0.021556513
       449.99997       286.60517       98776.409       14979.454       2.9472500      0.91675000     -0.21425000       340.75500       1.9350290     0.020296566
       454.99999       286.58892       98780.485       14956.755       3.0327500       1.0910000      0.39425000       340.86600       1.8693259     0.031013683
       460.00000       286.59982       98791.335       14932.298       3.3422500     -0.50275000     -0.33325000       340.69300       1.9243140     0.025098490
       464.99997       286.59966       98797.286       14872.235       3.0237500      0.20550000     -0.54000000       341.02000       1.8313583     0.035351775
       469.99999       286.58703       98807.357       14749.930       4.0557500       1.1150000     0.074500000       340.84000       1.8748923     0.030743263
       475.00000       286.60078       98813.698       14683.207       4.5447500       1.0655000     -0.25050000       340.64600       1.8705714     0.028331101
       479.99997       286.63905       98815.364       14606.222       3.8530000      0.35000000     -0.52900000       340.62300       1.8712019     0.029974575
       484.99998       286.65940       98815.983       14565.806       3.9605000       1.3027500     -0.33025000       340.66100       1.8630131     0.033354783
       490.00000       286.69548       98814.635       14575.540       4.1212500      0.82250010     -0.22675000       340.56300       1.9256634     0.028862509
       494.99997       286.71154       98815.583       14583.668       2.6542500      0.14200000     -0.19400000       341.01300       1.9031012     0.019836168
       499.99998       286.69970       98815.809       14594.959       2.2200000      0.74750010       1.1232500       341.06500       1.8616655     0.038231084
       505.00000       286.69942       98814.783       14631.395       3.9270000      0.97550000     -0.31775000       340.85800       2.0824302     0.016857564
       509.99997       286.70001       98818.401       14705.908       3.2280000      0.54625000     0.048500000       340.72800       1.9694087     0.014475933
       514.99998       286.69997       98815.217       14760.016       3.6470000      0.18475000     -0.65175000       340.72000       1.9674212     0.015997289
       520.00000       286.69962       98803.005       14837.248       3.3375000     -0.12375000      0.46925000       340.79300       1.8903764     0.030452474
       524.99997       286.69954       98797.343       14878.217       2.7870000      -1.2167500     -0.33025000       341.13600       1.9054852     0.029034604
       529.99998       286.70031       98792.427       14896.270       2.4905000     -0.78450010      0.37325000       340.86100       1.8872756     0.034439056
       535.99999       286.70025       98787.009       14905.578       2.6570000     -0.85800000     -0.12025000       340.77100       1.9801476     0.018466326
       541.00000       286.70001       98788.450       14886.322       2.1090000      0.24725000      0.16600000       340.96800       2.0075995     0.015636420
       545.99998       286.70001       98783.294       14875.511       3.1907500   -0.0077500000      0.48875000       341.00700       1.8201535     0.027598117
       550.99999       286.69965       98772.035       14864.315       4.3007500      0.98775010     -0.10300000       340.72800       1.7937039     0.047080057
       556.00000       286.69936       98766.567       14837.995       3.7530000      0.77850000     0.089750010       340.59000       1.8756884     0.025156907
       560.99997       286.70001       98758.118       14801.109       3.9127500      0.72000000      0.15525000       340.74000       2.0037345     0.018029254
       565.99999       286.69995       98758.504       14769.071       3.3560000     -0.79025010      0.33150000       340.82500       1.9355809     0.032970026
       571.00000       286.68879       98768.788       14698.962       3.9672500      0.14875000     -0.20050000       340.68000       1.7811417     0.042890620
       575.99997       286.70488       98772.806       14701.096       2.7457500      0.51700000     -0.46175000       340.86300       2.0059389     0.016122783
       580.99999       286.74229       98778.849       14750.533       3.2902500     -0.14750000      0.30425000       340.58100       1.7279975     0.037829582
       586.00000       286.76214       98783.078       14783.345       3.3515000      0.30100000     -0.33375000       340.68900       1.8839022     0.032222504
       590.99997       286.79896       98782.045       14860.431       1.8792500     -0.22175000     0.059250000       340.88800       2.0552807     0.014593829
       595.99999       286.81228       98787.324       14902.156       3.2142500       1.0930000      0.17650000       340.75500       2.0444835     0.014890555
       601.00000       286.78919       98798.737       14906.532       4.0520000      0.48750000    -0.067500000       340.76500       2.0501050     0.016945288
