MIRICO/SHELL project - Processed LDS file generated on
Sun Jul 23 03:32:06 2017
Time stamp for record start
05/12/2017  12:01:18.0001
Nb of points in the record
         917
Beam position index
       1.0000000
Beam angle (degrees)
      -18.455000
Open Path length (m)
       34.890000
****************** Temporal data record ************************
Elapsedtime_sec Temp_K Press_Pa Humidity_ppmv WindX_m/s WindY_m/s WindZ_m/s Speedofsound_m/s CH4vmr_ppmv CH4vmrerror_ppmv  
      0.00000000       287.81487       98869.828       14076.976       2.9142500      -2.0635000      0.22450000       341.23400       2.0564667     0.015398035
       4.9999729       287.85399       98856.539       14035.742       4.4362500      -1.5035000     0.034500000       341.15700       1.9825406     0.022072071
       9.9999860       287.84415       98850.846       13969.495       3.1767500     -0.92575000     -0.45375000       341.16200       2.1314433     0.012980930
       14.999999       287.85741       98841.350       13912.435       3.9367500     -0.10875000      0.23475000       341.13800       2.0347137     0.022833364
       19.999972       287.85135       98843.959       13857.284       3.4517500      -1.1222500       1.1640000       341.23300       2.0182032     0.016712983
       24.999985       287.78973       98862.554       13748.184       3.9265000      0.10425000     -0.55050000       341.12300       2.0512962     0.015015459
       29.999998       287.79257       98869.962       13725.514       4.0287500       1.1860000      0.28700000       341.03900       2.0038359     0.019024390
       34.999971       287.84178       98880.974       13766.915       2.8347500      -1.9207500      0.18675000       341.12500       2.0348855     0.015062290
       39.999984       287.86180       98883.480       13786.511       5.5615000      -2.4022500     -0.39725000       340.82600       2.0478457     0.016700004
       44.999997       287.91002       98874.883       13849.731       4.8207500     -0.35125000     -0.28800000       341.11200       2.0458544     0.018333767
       49.999970       287.90765       98874.506       13868.304       3.0547500      0.11700000      0.66325000       341.24100       2.0348628     0.015998348
       54.999983       287.84692       98875.814       13849.352       3.5572500    -0.089000000     -0.64350000       341.04200       2.0781416     0.022260150
       59.999996       287.84313       98874.837       13864.593       4.6267500     -0.92300000    -0.030500000       340.93800       2.0620248     0.017631832
       64.999969       287.84169       98878.610       13888.321       4.2615000    -0.051500000    -0.027750000       341.11400       1.9843763     0.024838484
       69.999982       287.84820       98874.707       13898.485       3.6645000      -1.1920000     0.080000010       341.15100       1.9985011     0.022854125
       75.999990       287.90276       98858.945       13931.578       4.6947500     -0.59300010     -0.86225000       340.99200       2.1134213     0.017348784
       81.000003       287.91412       98857.543       13925.210       5.7832500      -1.2615000     -0.28000000       340.95400       2.0974200     0.014111219
       85.999976       287.89134       98858.054       13875.370       6.6790000      -1.3820000     -0.12175000       340.83800       2.0905815     0.016586249
       90.999989       287.90999       98861.609       13870.843       4.5570000      0.59125000      0.38175000       341.07300       2.0208019     0.019987280
       96.000002       287.93730       98873.675       13864.210       4.9455000       1.1572500      0.40350000       341.04200       2.1659402     0.014901380
       100.99998       287.97582       98881.569       13891.818       6.6285000     -0.39400000     -0.18925000       340.82800       2.1294174     0.018374226
       105.99999       288.05830       98889.770       13969.801       6.2130000     -0.80650000     -0.34300000       340.92400       1.9157971     0.026201875
       111.00000       288.07112       98894.856       13990.306       5.7390000     -0.90150000     -0.30850000       340.74400       2.0783710     0.017565674
       115.99997       288.05813       98902.898       14002.961       5.1265000      -1.7062500    -0.078750010       340.88400       2.0212910     0.016637753
       120.99999       288.04908       98901.381       14015.938       4.6157500      -2.7360000    0.0095000010       340.91600       2.0996083     0.015589049
       126.00000       287.98846       98892.066       13986.133       4.6855000      -2.2047500      0.66075000       340.95700       2.0153458     0.018590331
       130.99997       287.99574       98886.229       14014.831       4.7710000      -1.9622500     -0.34000000       340.93000       2.1351867     0.017997127
       135.99999       288.05637       98876.822       14096.333       4.7370000      -1.3292500     -0.10975000       340.87400       2.0223687     0.019485851
       141.00000       288.05792       98868.828       14118.561       5.1700000     0.096500000     -0.54125010       340.98800       2.0131327     0.015335566
       145.99997       288.04805       98860.590       14128.534       4.5875000     -0.86050000     -0.38550000       341.05800       1.9809461     0.026087805
       150.99999       288.05794       98855.420       14149.358       5.1222500      -2.0530000     -0.50225000       341.02000       1.9980417     0.018098752
       156.00000       288.03278       98847.810       14127.066       4.6492500     -0.50625000     -0.10950000       340.90400       2.0394948     0.013874529
       160.99997       288.06088       98849.426       14173.482       4.7375000      -1.7485000     -0.33900000       340.86500       2.1009666     0.016558348
       166.99998       288.15637       98859.898       14289.463       4.7662500     -0.10100000     -0.65450000       340.99200       2.0746530     0.014829894
       171.99999       288.18512       98867.390       14359.440       4.9905000     -0.89075010      0.19650000       341.02500       2.0233737     0.027255813
       177.00001       288.20665       98875.394       14404.815       3.9967500     -0.84325000      0.44150000       341.09200       2.1085329     0.014708415
       181.99998       288.17005       98884.978       14370.011       4.1395000      0.49125000    -0.065000010       341.16200       2.0261706     0.016371585
       186.99999       288.18762       98891.069       14396.194       4.6595000     -0.10250000     0.023750000       341.02000       1.9595255     0.021592737
       192.00000       288.27520       98900.213       14466.584       4.3857500      -1.9070000     -0.48825000       341.07200       2.0573034     0.020494353
       196.99998       288.30629       98902.647       14515.103       4.4387500      -2.0670000     -0.46825000       340.99300       2.1165780     0.014116606
       201.99999       288.32504       98900.136       14570.432       2.6330000     -0.97500000      0.46375000       341.22800       2.1089219     0.017486891
       207.00000       288.37677       98890.938       14688.741       4.3535000     -0.58600000    -0.071500000       341.23800       1.9958846     0.017502042
       211.99998       288.33100       98884.668       14662.659       3.4845000      -2.2972500      0.11050000       340.98100       2.1190916     0.020058322
       216.99999       288.18857       98875.382       14552.208       4.1710000      0.22350000      0.37150000       341.13900       2.0401280     0.032050878
       222.00000       288.14603       98867.151       14482.648       3.8327500      0.12700000     -0.21400000       341.10800       2.0990121     0.016113328
       226.99998       288.13177       98860.105       14438.630       3.7192500     -0.62175010     -0.57175000       340.99800       1.9628088     0.019409942
       231.99999       288.23049       98848.870       14495.113       4.0460000     -0.83300010     -0.28925000       341.06700       2.0809599     0.015552843
       237.00000       288.26265       98843.581       14492.880       2.8617500      -1.1532500     -0.48625000       341.13600       2.1176246     0.013360117
       241.99997       288.27024       98841.972       14464.589       3.2202500      -1.6297500     -0.15700000       341.11000       1.9830000     0.018182416
       246.99999       288.25737       98843.457       14402.347       2.3815000      -2.0367500     0.063500000       341.29400       2.0301045     0.028750028
       252.00000       288.24578       98849.018       14362.930       1.6192500      -1.1112500      0.32525000       341.38700       2.0554909     0.019147992
       257.99997       288.19373       98861.508       14291.938       3.5025000      -2.6817500    -0.057250000       340.91900       2.0594300     0.017341009
       262.99998       288.17919       98868.997       14286.394       3.6367500      -1.1517500      0.72925000       341.09400       1.9808536     0.017764299
       267.99999       288.14784       98876.987       14261.999       2.8465000      -1.9555000     -0.28250000       341.32400       2.0622444     0.014932280
       272.99997       288.06077       98889.188       14220.598       3.3035000      -1.2792500     -0.92150000       341.15300       2.0720094     0.018676990
       277.99998       288.03360       98892.785       14198.151       3.1675000     -0.69450000      0.35250000       341.31700       2.0711964     0.019185203
       282.99999       288.02926       98891.521       14160.909       2.6517500      -1.2967500      0.17675000       341.59400       2.1446684     0.018528701
       288.00001       288.04143       98891.304       14159.973       4.0022500      0.28600000      0.10075000       341.23600       2.0550245     0.016738141
       292.99998       288.13799       98882.346       14223.523       2.3255000      -2.5792500     -0.11525000       341.36600       2.0499172     0.017626771
       297.99999       288.16538       98878.646       14236.484       2.9270000     -0.46375000     0.010000000       341.37000       1.9930035     0.019845598
       303.00001       288.15613       98881.677       14249.315       3.1105000      -1.5050000     -0.76075010       341.54500       2.0433220     0.018848583
       307.99998       288.15519       98880.536       14245.938       3.2842500     -0.71250000     0.025500000       341.15000       2.0742387     0.016239223
       312.99999       288.09555       98879.570       14176.857       2.6745000      -1.1852500     -0.21300000       341.36300       2.0129998     0.022074215
       318.00001       288.08757       98875.323       14153.522       3.9710000      -1.0580000      0.30025000       341.40400       2.0950499     0.019605621
       322.99998       288.11996       98865.917       14158.788       3.5975000     -0.82925000     -0.26325000       341.17900       1.9720674     0.025176805
       327.99999       288.15105       98858.984       14158.197       3.5577500      -1.2325000     -0.45875000       340.98000       2.0365589     0.015629959
       333.00000       288.22409       98847.461       14177.933       5.3725000      -1.2682500     -0.71700000       340.91900       2.0101526     0.015652917
       337.99998       288.26286       98842.862       14188.735       4.7835000      -1.4580000     -0.34825000       341.19400       2.0311688     0.024178443
       342.99999       288.26198       98844.730       14168.848       3.5572500      -1.0475000     0.036000000       341.45700       2.0607169     0.016271885
       349.00000       288.31352       98845.077       14199.186       3.0515000      -2.4912500     -0.37025000       341.35900       2.0646665     0.018404020
       353.99997       288.36445       98847.196       14246.705       3.8787500      -2.5475000     -0.16025000       340.98100       2.0353944     0.016602180
       358.99998       288.41825       98851.562       14305.320       3.4287500      -1.3007500     -0.46350000       340.98600       2.0341889     0.014999953
       364.00000       288.54214       98856.722       14408.496       3.2070000     -0.14750000      0.46200000       341.41900       2.2734944     0.010717798
       368.99997       288.58044       98862.124       14487.861       3.3097500      -2.4170000      0.37150000       341.16800       2.0317484     0.019210035
       373.99998       288.54385       98873.187       14554.180       2.8465000      0.16625000      0.56750010       341.62100       1.9804398     0.016734376
       379.00000       288.55369       98878.423       14636.358       3.9472500      -1.1975000     -0.45975000       341.13800       2.1008285     0.018967197
       383.99997       288.54293       98879.934       14750.640       2.2730000      -1.7690000     -0.15650000       341.60700       2.0530346     0.016199987
       388.99998       288.54715       98881.601       14809.652       3.5310000     0.051750000      0.69500010       341.51900       2.0233670     0.018347254
       394.00000       288.60755       98880.377       14875.995       3.7497500      -2.2467500      0.15800000       341.38400       2.0036995     0.015166240
       398.99997       288.61031       98880.417       14881.793       4.8662500      -1.1260000     -0.20500000       341.65800       2.0022679     0.016545475
       403.99998       288.56127       98880.243       14797.670       3.9097500      -1.4722500    -0.082250010       341.66500       1.9982304     0.021731988
       408.99999       288.54115       98880.243       14751.394       4.1130000      -1.3475000    -0.059750000       341.10000       1.9677025     0.019392530
       414.00001       288.50511       98880.419       14690.486       4.1307500      -1.6665000    0.0037500000       341.04300       1.8579235     0.039006861
       418.99998       288.48908       98880.502       14634.628       3.4070000      0.25100000     -0.23825000       341.18800       1.9879390     0.018143831
       423.99999       288.49972       98881.572       14589.394       2.9825000      -1.2805000      0.48000000       341.83200       2.1070286     0.016522435
       429.00001       288.49961       98880.189       14539.639       3.4305000      -1.4215000     -0.12300000       341.57600       2.0098030     0.016440391
       433.99998       288.48739       98879.003       14452.655       4.0285000     -0.88925000      0.54575000       341.66500       2.0514192     0.017033787
       439.99999       288.50565       98872.963       14429.201       5.0907500      -1.3287500     -0.96975000       341.42300       2.0481870     0.016414646
       445.00000       288.54280       98859.581       14444.949       4.4055000     -0.88225010      0.18275000       341.37200       2.0167096     0.014946857
       449.99997       288.56291       98857.434       14469.968       5.4792500      -2.6042500     -0.46525000       340.79900       2.0219168     0.018500193
       454.99999       288.61054       98862.273       14552.940       4.7192500      -1.4252500     -0.46100000       341.08500       2.0429799     0.019576318
       460.00000       288.60780       98858.697       14592.251       3.7487500      -2.3420000     -0.27225000       341.62300       1.9736896     0.016521016
       464.99997       288.55791       98857.707       14615.240       5.9267500      -2.1540000     -0.31175000       341.05700       1.9949057     0.017839843
       469.99999       288.53800       98854.551       14646.237       3.2620000     -0.67225000    0.0027500000       341.52400       2.1374506     0.013427846
       475.00000       288.48922       98839.420       14668.589       4.0037500      -1.2392500      0.10400000       341.58400       2.1258550     0.012591958
       479.99997       288.49194       98836.978       14697.602       2.8165000     -0.48225000       1.1457500       341.59200       2.0066848     0.016549679
       484.99998       288.53151       98844.546       14761.859       3.3062500     -0.75675000     -0.15275000       341.70500       1.9619433     0.016106796
       490.00000       288.56829       98846.588       14755.094       4.4537500      -1.8935000      0.90750000       341.35300       2.0130599     0.018936709
       494.99997       288.63136       98847.937       14696.014       4.6447500      0.21425000    -0.089000000       340.94400       2.0508929     0.018530681
       499.99998       288.68169       98852.543       14674.221       2.5540000     -0.74725000     -0.26350000       341.69400       2.0159685     0.021568000
       505.00000       288.71891       98858.959       14590.169       4.4117500      -1.8750000     -0.90725000       341.35300       2.0112794     0.020256967
       509.99997       288.78462       98863.032       14606.142       3.9982500      -2.6242500     -0.39650000       341.17200       2.0797452     0.014653243
       514.99998       288.87765       98869.005       14727.090       3.5750000      -2.4487500      0.29875000       341.32400       2.1187507     0.013583410
       520.00000       288.95084       98873.357       14787.373       2.5380000      -1.3930000      0.90400000       342.27800       1.9576058     0.021691702
       524.99997       288.94573       98874.466       14748.026       3.6472500      -1.2532500     -0.11075000       341.31200       2.0332030     0.020282153
       530.99998       288.98225       98876.883       14758.122       2.9405000      -1.8460000      0.35525000       341.61200       2.0508156     0.016318876
       535.99999       289.01231       98880.363       14766.206       2.4382500     -0.75325010      0.50900000       341.23800       1.9430899     0.023171898
       541.00000       289.04205       98881.423       14774.561       5.0095000     -0.96800010     -0.33900000       340.84400       2.0556211     0.019641568
       545.99998       289.07146       98880.249       14783.160       3.7342500     -0.51625000     -0.37200000       341.07900       1.9791313     0.017407833
       550.99999       289.10054       98880.203       14791.494       3.6015000     -0.41175000      0.23525000       341.61700       1.9697870     0.017579459
       556.00000       289.12930       98880.448       14799.691       1.1510000     -0.53000000      0.67850010       342.51700       1.9885585     0.023928282
       560.99997       289.15772       98880.541       14807.819       3.0780000      -1.2012500     -0.12625000       341.78900       2.0213843     0.015757051
       565.99999       289.18581       98880.299       14815.907       3.2385000      -2.0887500     -0.65150000       340.92100       1.9744516     0.013443108
       571.00000       289.21357       98880.266       14823.874       3.2252500      -1.6797500      0.44225000       341.93300       1.9526841     0.018683566
       575.99997       289.24101       98880.103       14831.771       4.4697500      -2.3657500    -0.024500000       341.38900       1.9680157     0.014694041
       580.99999       289.26812       98880.011       14839.570       2.8062500     -0.51000010      0.26775000       342.42700       1.9410165     0.015379196
       586.00000       289.29489       98882.820       14846.839       3.4422500      -2.4300000     -0.35850000       341.39000       2.0155407     0.015545847
       590.99997       289.32134       98877.181       14855.309       2.7105000      -1.6445000    -0.050500000       342.66400       1.9392225     0.018556183
       595.99999       289.34746       98864.567       14864.760       4.9905000      -1.7320000      0.40600000       342.03000       1.9721806     0.013532742
       601.00000       289.37325       98862.262       14872.554       4.3982500      -2.2340000     -0.68550000       342.00900       1.9747928     0.018169892
