MIRICO/SHELL project - Processed LDS file generated on
Sun Jul 23 05:54:07 2017
Time stamp for record start
05/12/2017  12:01:18.0001
Nb of points in the record
         917
Beam position index
       2.0000000
Beam angle (degrees)
      -8.6380000
Open Path length (m)
       64.850000
****************** Temporal data record ************************
Elapsedtime_sec Temp_K Press_Pa Humidity_ppmv WindX_m/s WindY_m/s WindZ_m/s Speedofsound_m/s CH4vmr_ppmv CH4vmrerror_ppmv  
      0.00000000       287.81487       98869.828       14076.976       3.9627500      -1.4452500     -0.45125000       341.10300       1.8663815     0.012063246
       4.9999729       287.85399       98856.539       14035.742       4.2442500      -1.2402500     0.040750000       341.09700       1.9494923    0.0095559112
       9.9999860       287.84415       98850.846       13969.495       2.6177500     0.071750000      0.40550000       341.29500       1.9388538     0.010727691
       14.999999       287.85741       98841.350       13912.435       4.7745000      0.23600000     0.034250000       341.04000       1.9392411     0.011151760
       19.999972       287.85135       98843.959       13857.284       3.3220000      -1.5127500     -0.37375000       341.27100       2.0160211    0.0099321206
       24.999985       287.78973       98862.554       13748.184       3.8435000      -1.4782500     -0.34775000       340.95300       1.8794366     0.013253056
       29.999998       287.79257       98869.962       13725.514       5.2942500      -1.1172500    -0.035250000       341.07200       1.9449413     0.010232410
       34.999971       287.84178       98880.974       13766.915       3.7462500      -1.5772500    -0.069000010       341.21100       1.9508286     0.012175916
       40.999979       287.86581       98883.378       13791.826       4.8510000     -0.85325000      0.35525000       340.96900       2.0118191     0.010401107
       45.999992       287.91157       98874.703       13854.779       4.4542500      -1.3907500      0.43025000       341.00900       2.0148306     0.012276040
       51.000005       287.90414       98874.587       13870.015       2.9837500    -0.090250010      0.87875000       341.22800       1.8870449     0.015068795
       55.999978       287.84518       98875.621       13851.856       3.3852500      0.27825000      0.38375000       341.14900       1.9116450     0.010158164
       60.999991       287.84384       98874.639       13868.460       3.8077500      -1.6072500     0.034000000       340.93900       1.8645946     0.015360031
       66.000004       287.84196       98878.137       13890.424       3.9130000      0.60550000      0.59600000       341.06600       1.9596076     0.010345171
       70.999977       287.85105       98873.465       13900.413       4.8495000      -1.5122500    -0.047500000       341.07500       1.9722840    0.0099740707
       75.999990       287.90276       98858.945       13931.578       2.8937500     -0.71950000     -0.25125000       341.10200       1.8690218     0.011888303
       81.000003       287.91412       98857.543       13925.210       6.1512500     -0.44075000     -0.48950000       340.82500       1.8789569     0.015372434
       85.999976       287.89134       98858.054       13875.370       7.0887500      -1.9982500      0.13200000       340.88700       1.9646450     0.011343267
       90.999989       287.90999       98861.609       13870.843       4.7242500    -0.088000010     -0.47675000       341.06200       2.0039649     0.013666335
       96.000002       287.93730       98873.675       13864.210       4.3697500       1.3400000      0.79975000       341.14500       1.9316960     0.010292689
       100.99998       287.97582       98881.569       13891.818       6.6835000    -0.015500000     0.051000000       340.96600       1.8400891     0.022239046
       105.99999       288.05830       98889.770       13969.801       4.4657500      0.20550000      0.93950000       340.99100       1.9130035     0.010951300
       111.00000       288.07112       98894.856       13990.306       6.1507500     -0.29025000      0.62175010       340.79500       1.8114309     0.019201164
       115.99997       288.05813       98902.898       14002.961       4.7300000      -2.0760000     -0.23525000       340.99000       1.9508197     0.018043191
       120.99999       288.04908       98901.381       14015.938       4.3362500      -2.0825000      0.38700000       340.90900       1.8745248     0.011726705
       126.00000       287.98846       98892.066       13986.133       4.0065000     -0.48700000      0.14775000       340.92300       1.8008897     0.020968899
       131.99997       288.04581       98883.258       14068.247       4.4825000      -2.2575000     -0.18100000       340.93300       1.9558439     0.011498348
       136.99998       288.05772       98875.219       14101.925       4.7037500      -2.1065000     0.050500000       341.02600       2.0100842     0.011467281
       141.99999       288.04010       98865.595       14108.607       4.6860000      -1.3217500      0.36350000       341.16000       1.8419863     0.017225114
       147.00001       288.05004       98859.459       14133.062       5.1142500     -0.31250000     -0.43100000       340.90500       2.0032102    0.0099755897
       151.99998       288.05991       98854.531       14152.977       4.9887500      -1.6352500     -0.13900000       341.05600       1.8791347     0.013737662
       156.99999       288.03636       98847.728       14133.967       5.4162500     -0.66075000     -0.32875000       340.97900       1.8934261     0.012513190
       162.00001       288.06957       98850.357       14186.348       5.0087500     -0.62475000     -0.18175000       341.10000       1.9021644     0.013308739
       166.99998       288.15637       98859.898       14289.463       4.4540000     0.050250000     -0.44150000       340.95200       1.9115539     0.011775315
       171.99999       288.18512       98867.390       14359.440       4.5592500      -1.2035000      0.72175000       341.11900       1.8577304     0.019894689
       177.00001       288.20665       98875.394       14404.815       3.5732500    0.0070000000      0.33575000       341.13500       1.9278328     0.011464428
       181.99998       288.17005       98884.978       14370.011       3.6910000      0.13950000      0.20550000       341.18300       1.9412122     0.010280437
       186.99999       288.18762       98891.069       14396.194       4.4500000     -0.66250000     -0.63600000       340.89600       1.9832907     0.010337641
       192.00000       288.27520       98900.213       14466.584       4.1332500      -1.1687500     -0.27750000       341.07500       1.9475818     0.010211791
       196.99998       288.30629       98902.647       14515.103       4.5215000      -2.1475000     -0.48400000       341.03500       1.9435170     0.011126400
       201.99999       288.32504       98900.136       14570.432       2.3390000      -1.6387500     0.037000000       341.18600       1.9249172     0.014036240
       207.00000       288.37677       98890.938       14688.741       3.9502500     -0.76425000      0.60000000       341.22700       1.9379924     0.011818226
       211.99998       288.33100       98884.668       14662.659       3.2225000     -0.77700000      0.26050000       341.11300       1.8685168     0.013629864
       216.99999       288.18857       98875.382       14552.208       5.2290000     -0.43150000     -0.14525000       341.29100       1.9371092     0.010776372
       223.00000       288.14016       98865.734       14471.329       4.3480000     -0.86800000     0.042000000       341.10500       1.9692348     0.014901151
       227.99997       288.13344       98858.708       14433.588       3.3835000     -0.83475010     0.012000000       340.94300       1.9511204     0.010055250
       232.99998       288.23889       98847.517       14496.754       3.7160000     -0.85425000     -0.45225000       340.89900       1.8730862     0.016426704
       238.00000       288.26614       98842.964       14489.304       2.7367500      -1.2100000     -0.14325000       341.20200       1.9313087     0.010641735
       242.99997       288.25740       98841.779       14431.120       3.5897500      -1.5230000      0.91075000       341.17200       1.8867605     0.013143889
       247.99998       288.25608       98844.261       14394.768       2.4405000      -1.4447500     -0.34050000       341.24000       1.9691213     0.012286211
       253.00000       288.22406       98854.537       14332.408       2.0675000     -0.64975010     0.033000000       341.37100       1.8820993     0.016976841
       257.99997       288.19373       98861.508       14291.938       3.5022500      -1.6695000     -0.33750000       340.90000       1.8299487     0.026886775
       262.99998       288.17919       98868.997       14286.394       3.0395000      0.90750000      0.94425000       341.25100       1.8612380     0.018581743
       267.99999       288.14784       98876.987       14261.999       2.0392500      -2.2832500     -0.51775000       341.31400       1.9102352     0.012232831
       272.99997       288.06077       98889.188       14220.598       3.1437500      -1.5805000     -0.58250000       341.11100       1.9348561     0.010682016
       277.99998       288.03360       98892.785       14198.151       2.8897500      -1.0407500      0.83575000       341.27700       1.8926930     0.010383156
       282.99999       288.02926       98891.521       14160.909       4.0290000      -2.2435000     -0.11625000       341.10700       1.9412174     0.010662169
       288.00001       288.04143       98891.304       14159.973       3.6105000      -1.1022500     -0.35925000       341.32200       1.8536688     0.014838517
       292.99998       288.13799       98882.346       14223.523       3.4615000      -1.7757500     0.039750000       341.19300       1.9404167     0.011128720
       297.99999       288.16538       98878.646       14236.484       3.2847500      -1.5312500    -0.035750000       341.34700       1.8927867     0.013708777
       303.00001       288.15613       98881.677       14249.315       3.1105000      -1.5050000     -0.76075010       341.54500       1.9732844    0.0092710151
       308.99997       288.15350       98880.156       14242.822       3.2237500     -0.34075000    0.0092500000       341.41400       1.8105625     0.024496666
       313.99999       288.09193       98878.918       14170.806       2.5312500      -1.1257500     -0.23700000       341.30600       1.9719019    0.0095514476
       319.00000       288.08901       98874.179       14150.928       3.3550000     -0.49475000     -0.10050000       341.33200       1.9245465     0.012895117
       323.99997       288.12519       98864.530       14158.111       3.6347500     -0.89900000     0.094250000       341.35100       1.8110961     0.019150692
       328.99999       288.15874       98857.597       14158.916       2.7522500     -0.43525000     -0.74150000       341.22900       1.9525325     0.012332872
       334.00000       288.23282       98846.241       14180.346       4.3310000      -2.2177500      0.58350000       341.23700       1.9930496     0.010289933
       338.99997       288.26915       98842.392       14190.518       5.0755000      -1.5945000     -0.40525000       341.13500       1.8408497     0.024635204
       343.99998       288.26931       98844.658       14171.863       3.5572500      -1.0475000     0.036000000       341.45700       1.9622594     0.010024933
       349.00000       288.31352       98845.077       14199.186       3.7415000      -1.2472500     -0.63050000       341.42300       1.8976347     0.018967951
       353.99997       288.36445       98847.196       14246.705       3.6022500      -2.3032500     -0.46925000       340.96600       1.8538264     0.019732293
       358.99998       288.41825       98851.562       14305.320       3.9417500     -0.54225000      0.20325000       341.26700       1.7996119     0.024415300
       364.00000       288.54214       98856.722       14408.496       3.7610000      -1.3212500     -0.20225000       341.16600       1.9643671    0.0097158298
       368.99997       288.58044       98862.124       14487.861       3.4330000     -0.69800000     -0.58850000       341.18900       1.9311025     0.011255430
       373.99998       288.54385       98873.187       14554.180       3.2685000      -1.7655000     -0.18100000       341.43900       1.8603580     0.018081212
       379.00000       288.55369       98878.423       14636.358       2.5880000     -0.42250000      0.17275000       341.53100       1.9072685     0.011172931
       383.99997       288.54293       98879.934       14750.640       2.8215000      -1.9045000      0.19400000       341.71800       1.9801567    0.0085429201
       388.99998       288.54715       98881.601       14809.652       4.0465000     -0.20525000      0.66950010       341.18600       1.9525357    0.0095463989
       394.00000       288.60755       98880.377       14875.995       3.4845000      -2.1170000      0.85000000       341.23600       1.8883790     0.013524091
       400.00000       288.60787       98880.427       14877.575       4.5720000      -1.2765000      0.18850000       341.51600       1.8590466     0.018351227
       404.99998       288.55722       98880.243       14788.731       4.1810000      -1.9535000     -0.72150000       341.68800       1.8757069     0.014740547
       409.99999       288.53717       98880.243       14741.666       4.2612500      -1.9522500     -0.48275000       341.28000       1.9640038     0.010929108
       415.00000       288.50092       98880.434       14679.081       3.8945000      -1.3042500     -0.63400000       341.32200       2.0490269     0.016298173
       419.99997       288.48735       98880.521       14623.802       3.4542500     -0.67525010     -0.26300000       341.47200       1.8658399     0.015351623
       424.99999       288.49970       98881.396       14579.653       3.9545000     0.026250000      0.19800000       341.27100       1.9883558     0.011974318
       430.00000       288.49958       98879.762       14529.374       3.2800000      -1.3010000      0.30150000       341.61100       1.9302374     0.010778030
       434.99997       288.48919       98878.248       14445.719       3.3150000     -0.17475000   -0.0022500000       341.60400       1.7930799     0.017593468
       439.99999       288.50565       98872.963       14429.201       5.3395000      -1.6032500     0.083500010       341.58700       1.9178382     0.010512971
       445.00000       288.54280       98859.581       14444.949       4.3707500      -1.3182500     -0.37450000       341.07000       1.9062668     0.011600996
       449.99997       288.56291       98857.434       14469.968       5.1075000      -1.8077500     -0.68225000       341.29200       1.9103860     0.010694359
       454.99999       288.61054       98862.273       14552.940       4.1652500     -0.85650000     -0.60900000       340.89100       1.9165059     0.011175158
       460.00000       288.60780       98858.697       14592.251       4.8077500      -2.2877500      0.11100000       340.82200       1.9497741     0.010922969
       464.99997       288.55791       98857.707       14615.240       5.3362500      -2.2352500     -0.33550000       341.13800       1.9769259    0.0089060677
       469.99999       288.53800       98854.551       14646.237       3.0285000      -1.2030000   -0.0012500000       341.34200       1.9017548     0.013931408
       475.00000       288.48922       98839.420       14668.589       3.5577500      -1.4715000      0.24500000       341.66200       1.8530140     0.014801367
       479.99997       288.49194       98836.978       14697.602       4.2095000      -2.2785000      0.25450000       341.59800       1.9860947     0.010084239
       484.99998       288.53151       98844.546       14761.859       4.3200000      -2.5095000     -0.48950000       341.26200       1.9227156     0.011179880
       490.99999       288.57716       98847.000       14749.974       3.8380000     -0.79125010       1.0255000       341.64400       1.9629275     0.010345340
       496.00001       288.64146       98848.758       14691.834       4.3657500     -0.19675000    -0.096250010       340.97600       1.8797046     0.013310790
       500.99998       288.69171       98853.614       14669.593       2.9007500      0.66450010      0.29300000       341.84100       1.9485855     0.010678395
       505.99999       288.73107       98859.773       14589.541       2.6582500      -1.8600000      0.35400000       341.46700       1.8791799     0.013366981
       511.00000       288.79924       98863.849       14615.092       3.7552500      -2.0030000    -0.061750000       341.15300       1.8852695     0.013922027
       515.99998       288.89236       98869.975       14739.176       3.3247500      -2.1267500    -0.083750000       341.53800       1.8709913     0.013729606
       520.99999       288.96538       98874.077       14799.386       4.6552500      -1.3250000     -0.22950000       341.35300       1.9389604     0.015326323
       526.00000       288.95185       98874.869       14749.719       3.9265000      -1.5035000     -0.35800000       341.71600       1.8145687     0.014795762
       530.99998       288.98225       98876.883       14758.122       4.5652500      -2.1337500    -0.078500000       341.66500       2.0732508     0.012874525
       535.99999       289.01231       98880.363       14766.206       4.4320000      -2.1840000    -0.016250000       341.35100       1.8498885     0.017709182
       541.00000       289.04205       98881.423       14774.561       4.7717500     -0.35500000     -0.43950000       340.83100       1.8677802     0.012297151
       545.99998       289.07146       98880.249       14783.160       3.0175000     -0.61525010     -0.13850000       341.34000       1.9566365     0.010932351
       550.99999       289.10054       98880.203       14791.494       3.7207500     -0.26775000     -0.21400000       341.31900       1.9035132     0.010617072
       556.00000       289.12930       98880.448       14799.691       1.5357500     -0.94450000      0.19025000       342.70900       1.9702832     0.010832293
       560.99997       289.15772       98880.541       14807.819       2.6455000      -1.4520000     -0.12000000       341.92400       1.8939650     0.012360032
       565.99999       289.18581       98880.299       14815.907       3.6995000      -1.4537500     0.019250000       340.88100       1.9654504     0.011024874
       571.00000       289.21357       98880.266       14823.874       1.8140000      -1.3832500      0.54500000       342.13500       1.9051321    0.0099759917
       575.99997       289.24101       98880.103       14831.771       3.7632500      -2.4125000     -0.14900000       341.51300       1.8927504     0.011602571
       581.99998       289.27350       98884.600       14840.417       2.9720000     -0.87525000     -0.35800000       342.42900       1.9095545     0.010772969
       586.99999       289.30021       98881.995       14848.493       3.8915000      -2.0605000     -0.13300000       341.85200       1.9206873     0.010199885
       591.99997       289.32659       98868.171       14858.195       3.3280000      -2.0012500     -0.54025000       342.09200       1.8598785     0.010334009
       596.99998       289.35264       98863.910       14866.355       4.4085000      -1.9482500     -0.24775000       341.57100       1.8544377     0.014563434
       601.99999       289.37836       98862.094       14874.058       3.8862500      -1.3697500      0.30000000       342.31900       1.7660084     0.015199346
