MIRICO/SHELL project - Processed LDS file generated on
Sun Jul 23 20:56:41 2017
Time stamp for record start
05/12/2017  12:01:13.0000
Nb of points in the record
         918
Beam position index
       3.0000000
Beam angle (degrees)
     -0.96000000
Open Path length (m)
       44.550000
****************** Temporal data record ************************
Elapsedtime_sec Temp_K Press_Pa Humidity_ppmv WindX_m/s WindY_m/s WindZ_m/s Speedofsound_m/s CH4vmr_ppmv CH4vmrerror_ppmv  
      0.00000000       287.84666       98879.470       14135.906       3.6197500      0.76450000      0.36950000       340.93700       2.1034123     0.013788071
       6.0000077       287.81311       98867.755       14066.607       3.8602500     -0.52750000     0.015250000       341.14200       2.1329818     0.024902168
       10.999981       287.85202       98855.204       14022.686       3.9905000     -0.69600000     -0.20725000       341.13500       2.0440978     0.014070812
       15.999994       287.84218       98850.002       13955.956       3.3412500      0.56975000      0.59300010       341.06400       1.9552725     0.011076865
       21.000007       287.85719       98841.283       13901.698       4.4515000    -0.040250000      0.35325000       341.04800       2.0653163     0.015973326
       26.000020       287.84866       98845.364       13845.818       3.2640000      -1.3382500     -0.12200000       341.32800       1.9699010     0.011125848
       30.999993       287.78829       98864.129       13740.442       4.4982500     -0.92725000      0.30150000       341.14600       2.0502407     0.017103584
       36.000006       287.79616       98871.304       13725.788       4.9610000      0.57125000     -0.32225000       340.97200       1.9160097     0.015763310
       41.000019       287.84578       98881.877       13769.905       3.8305000      -1.1955000     -0.35975000       341.15300       1.9929754     0.014070066
       45.999992       287.86581       98883.378       13791.826       6.4715000     -0.45700000     -0.52950000       340.97800       2.0575316     0.016299452
       51.000005       287.91157       98874.703       13854.779       4.7662500      -1.1382500      0.23325000       341.07900       2.1581942     0.021271022
       56.000018       287.90414       98874.587       13870.015       5.4840000       1.1640000      0.32250000       341.04100       2.0832345     0.014386766
       60.999991       287.84518       98875.621       13851.856       5.2707500       1.2407500     0.068250000       340.77300       1.9310701     0.012490899
       66.000004       287.84384       98874.639       13868.460       4.6632500      -1.3795000      0.49350000       340.90500       2.1632380     0.022265970
       71.000017       287.84196       98878.137       13890.424       2.9337500     -0.74925010      0.77325000       341.19000       2.0644602     0.015383900
       75.999990       287.85105       98873.465       13900.413       4.7315000     -0.94075010     -0.87400000       341.08100       2.0110992     0.018155825
       81.000003       287.90276       98858.945       13931.578       2.9722500      -1.1127500      0.23375000       341.12200       1.9563346     0.010070721
       86.000016       287.91412       98857.543       13925.210       5.8710000     -0.37650000    -0.072750000       340.83600       1.9599748     0.013200088
       90.999989       287.89134       98858.054       13875.370       5.7272500      -1.8302500     -0.25200000       340.87300       1.9544288     0.014962610
       96.999997       287.91533       98867.350       13857.907       4.5230000      0.31975000      0.52550000       341.04600       2.0192654     0.018974293
       102.00001       287.94402       98875.255       13867.975       4.4915000     -0.79000000    0.0045000000       341.08600       2.1325803     0.027719890
       106.99998       288.03035       98884.811       13943.640       5.6642500     -0.17450000     0.066250000       340.75400       1.9652766     0.013129799
       112.00000       288.06283       98890.886       13974.988       5.7297500     -0.26475000      0.44125000       340.97100       2.0251454     0.015596605
       117.00001       288.07073       98895.725       13992.775       5.7500000     -0.91175000     0.014500000       340.78100       2.0710082     0.012447237
       121.99998       288.05736       98902.999       14006.256       4.9787500      -1.0210000      0.15025000       340.99400       2.0249781     0.013110189
       127.00000       288.04572       98900.470       14017.482       4.3690000      -1.4515000     0.064000000       340.92300       2.0776535     0.014164242
       132.00001       287.98792       98890.997       13990.025       3.9197500     -0.43225000      0.30000000       340.94100       2.0082530     0.011967136
       136.99998       288.04581       98883.258       14068.247       5.7390000      -2.3712500      0.20800000       340.94700       1.9886957     0.013371478
       141.99999       288.05772       98875.219       14101.925       4.4935000      -1.4767500     -0.45150000       340.99300       2.0233960     0.013670541
       147.00001       288.04010       98865.595       14108.607       4.5870000     -0.24525000     -0.27150000       340.93600       2.0856205     0.018310077
       152.00002       288.05004       98859.459       14133.062       4.8202500     0.054750000     -0.23325000       340.92200       2.0406314     0.010200597
       156.99999       288.05991       98854.531       14152.977       4.5527500     -0.82500000     0.070750010       340.99800       2.0593287     0.013905297
       162.00001       288.03636       98847.728       14133.967       3.7900000     -0.74975000     -0.17875000       340.97000       2.1305247     0.020893830
       167.00002       288.06957       98850.357       14186.348       4.8150000      -1.2985000     -0.19125000       340.80800       2.0294836     0.018912934
       171.99999       288.15637       98859.898       14289.463       4.3557500     -0.11425000     -0.64025000       340.92800       1.9310879     0.010337521
       177.00001       288.18512       98867.390       14359.440       4.8102500     -0.36550000     -0.35500000       341.06400       2.0969580     0.017289147
       182.00002       288.20665       98875.394       14404.815       5.3425000     -0.13700000     -0.36600000       340.95100       1.9772377     0.014708000
       187.99999       288.17160       98886.294       14373.384       3.2442500     0.066250000      0.39525000       341.15300       1.9111315     0.011282682
       193.00000       288.19408       98892.141       14404.231       3.4622500      0.66700010      0.46400000       341.06800       2.0705895     0.020632806
       198.00001       288.28241       98901.095       14475.743       4.0270000      0.19400000   -0.0072500000       341.20500       1.9517963     0.011827984
       202.99999       288.31103       98902.540       14525.624       3.9565000      -1.9117500     -0.62925000       340.90000       2.1492391     0.028358605
       208.00000       288.37680       98894.994       14665.185       3.3357500      -1.4055000       1.0080000       341.19400       2.1492233     0.023061480
       213.00001       288.37168       98889.791       14688.459       4.2517500      -1.4032500     -0.34550000       340.79100       2.0382553     0.010312027
       217.99998       288.22866       98881.800       14580.659       2.9762500     -0.31050000      0.33025000       341.13500       2.0471223     0.016924004
       223.00000       288.18106       98873.779       14545.262       5.1745000     -0.39875000    -0.066750000       341.24900       2.0765527     0.013805273
       228.00001       288.14016       98865.734       14471.329       5.5112500     -0.43450000     -0.38350000       340.93400       1.9635613     0.013736388
       232.99998       288.13344       98858.708       14433.588       4.4537500     -0.38575000     -0.23675000       341.04300       1.9567274     0.011542589
       238.00000       288.23889       98847.517       14496.754       3.5552500     -0.49075000     -0.18150000       341.09400       1.9579231     0.012145474
       243.00001       288.26614       98842.964       14489.304       2.4520000      -1.2610000      0.14650000       341.17600       2.0163177     0.014319913
       247.99998       288.25740       98841.779       14431.120       3.4427500      -1.5105000     -0.13050000       341.09600       1.9441354     0.012949706
       253.00000       288.25608       98844.261       14394.768       2.2855000     -0.80650000     0.024250000       341.30600       2.0610518     0.014113641
       258.00001       288.22406       98854.537       14332.408       1.7400000     -0.25725000      0.12525000       341.41400       2.0859492     0.020469134
       262.99998       288.19373       98861.508       14291.938       3.5360000     -0.77200000      0.10825000       341.31100       1.9597577     0.012782308
       267.99999       288.17919       98868.997       14286.394       4.0782500      -1.0412500      0.90125010       341.17800       2.1261379     0.020219643
       273.00001       288.14784       98876.987       14261.999       3.0592500      -1.7987500      0.22450000       341.33800       1.8790204     0.015373823
       279.00002       288.05337       98890.203       14215.624       2.8922500      -1.6220000     -0.18800000       341.11500       2.0395109     0.017942883
       283.99999       288.03112       98893.061       14194.388       2.9290000      -1.3250000      0.24750000       341.36800       2.1011348     0.023073957
       289.00000       288.02973       98891.675       14158.870       4.4990000      -1.2292500     -0.38200000       341.62400       2.0712926     0.016124412
       294.00001       288.04682       98890.966       14162.564       3.6647500      -1.1232500       1.4250000       341.44300       1.9054033     0.014332080
       298.99999       288.14547       98881.405       14227.105       2.5562500      -1.4517500      0.44925000       341.46400       2.0091141     0.017269431
       304.00000       288.16786       98878.208       14237.593       2.2142500     -0.50600000      0.39775000       341.43200       1.9544548     0.012260889
       309.00001       288.15695       98881.550       14250.267       3.1105000      -1.5050000     -0.76075010       341.54500       2.0857718     0.017609014
       313.99999       288.15350       98880.156       14242.822       3.7245000     -0.97150000     0.078500000       341.31400       1.9896118     0.016506945
       319.00000       288.09193       98878.918       14170.806       2.0157500      -1.3850000      0.26200000       341.42000       2.1280701     0.022279122
       324.00001       288.08901       98874.179       14150.928       2.9745000     -0.40550000     0.047250000       341.53700       1.9389881     0.011100909
       328.99999       288.12519       98864.530       14158.111       3.9437500     -0.77200000     -0.43125000       341.46600       2.0362357     0.018050768
       334.00000       288.15874       98857.597       14158.916       2.3207500     -0.28725000      0.82275000       341.51400       2.0251582     0.018217395
       339.00001       288.23282       98846.241       14180.346       5.6487500      -1.6570000     -0.68425010       341.12600       1.9978870     0.013165345
       343.99998       288.26915       98842.392       14190.518       4.5390000     -0.51300000     -0.44650000       341.16400       2.0671490     0.021102970
       349.00000       288.26931       98844.658       14171.863      -65.536000      -65.536000      -65.536000       307.23200       2.1582043     0.024724471
       354.00001       288.31352       98845.077       14199.186       4.1815000      -2.1665000     -0.17925000       341.37700       2.1845951     0.027538013
       358.99998       288.36445       98847.196       14246.705       3.4292500      -2.1440000      -1.1300000       340.86400       1.9922806     0.013605986
       364.99999       288.43044       98852.585       14319.203       4.2690000     -0.24800000     -0.72525000       341.15600       2.0633408     0.017207281
       370.00000       288.55275       98857.704       14424.621       2.8502500      -2.0665000     -0.35675000       341.19800       1.9137989     0.010784993
       375.00002       288.58367       98863.353       14503.344       3.3900000      -1.4150000     -0.80775000       341.13300       1.8445342     0.014314607
       379.99999       288.54582       98874.432       14570.219       4.8605000      -1.1555000      0.64025000       341.24900       2.0023817     0.015525915
       385.00000       288.55565       98879.173       14653.389       3.9887500      -1.1872500    -0.085500000       341.06700       2.0495149     0.016286213
       390.00002       288.54273       98880.368       14764.152       2.7532500      -1.1772500     -0.89625010       341.18500       1.9997661     0.015177964
       394.99999       288.54954       98881.782       14818.895       4.8442500      -1.9362500     -0.79850010       341.16100       1.9873923     0.016566904
       400.00000       288.61010       98880.384       14880.739       4.8302500      -1.1800000     -0.90925000       341.28400       1.9978303     0.015632962
       405.00002       288.60787       98880.427       14877.575       3.9067500     -0.48800000      0.23275000       341.46100       2.0224309     0.018227436
       409.99999       288.55722       98880.243       14788.731       4.5075000     0.016500000       1.3617500       341.94800       1.9980580     0.013996923
       415.00000       288.53717       98880.243       14741.666       3.3090000      -2.2785000    -0.060250000       341.30500       2.1169472     0.025845540
       420.00002       288.50092       98880.434       14679.081       4.1025000      -1.4270000     -0.14575000       341.29600       2.0533786     0.017187280
       424.99999       288.48735       98880.521       14623.802       3.3397500      -1.2970000     -0.43100000       341.34100       2.0982945     0.021197055
       430.00000       288.49970       98881.396       14579.653       4.0130000     -0.41700000    -0.041500000       341.16000       1.9265723     0.013422883
       435.00001       288.49958       98879.762       14529.374       2.8940000     -0.69575010     0.037000000       341.67900       2.1414708     0.026044613
       439.99999       288.48919       98878.248       14445.719       3.9647500     -0.20650000    -0.023750000       341.74400       2.0207116     0.015576275
       445.00000       288.50565       98872.963       14429.201       6.6112500      -1.3962500     -0.24500000       340.97500       1.9636922     0.014657314
       450.00001       288.54280       98859.581       14444.949       5.7075000      -2.3860000     -0.20025000       341.37500       2.0363144     0.021265562
       455.99998       288.56689       98857.467       14477.636       4.8422500      -1.6087500     0.011500000       341.15100       2.0120909     0.018517748
       460.99999       288.61197       98861.657       14561.577       4.6767500      -1.5655000     -0.41975000       341.12700       1.8980600     0.011801386
       466.00001       288.60430       98857.834       14598.944       4.0605000      -2.9440000     0.034500000       340.98700       1.9976006     0.013777389
       471.00002       288.55393       98857.273       14621.597       4.3127500      -1.5222500     -0.57900010       340.95100       2.0307471     0.014513872
       475.99999       288.53402       98853.625       14652.200       3.3792500     -0.91225000      0.32300000       341.52800       1.9755296     0.012382668
       481.00001       288.48774       98838.528       14674.145       3.9145000      -1.5562500     -0.27550000       341.64100       1.9065501     0.012415368
       486.00002       288.49552       98837.095       14703.780       3.6272500     -0.54475000      0.50175010       341.49200       2.0124863     0.012524617
       490.99999       288.53785       98844.952       14763.009       2.8187500      0.46400000      0.89675000       341.52400       2.0010573     0.012628201
       496.00001       288.57716       98847.000       14749.974       3.8502500      -1.6632500      -1.2205000       340.93800       2.0259809     0.016476133
       501.00002       288.64146       98848.758       14691.834       4.3462500     -0.32325000    -0.092750010       341.32000       1.8856567     0.013419965
       505.99999       288.69171       98853.614       14669.593       3.5492500    -0.083250000      0.34000000       341.57100       1.9798702     0.017319030
       511.00000       288.73107       98859.773       14589.541       3.0877500     -0.60200010      0.52850000       341.37900       1.9096981     0.015014926
       516.00002       288.79924       98863.849       14615.092       3.5025000      -2.7797500     -0.68050000       341.28100       2.1050405     0.025244002
       520.99999       288.89236       98869.975       14739.176       3.2107500      -2.7435000     -0.93550000       341.64000       1.9863607     0.011109381
       526.00000       288.96538       98874.077       14799.386       5.4910000      -1.7340000     -0.32825000       340.96100       2.0571720     0.016901603
       531.00002       288.95185       98874.869       14749.719       3.9050000      -2.1857500     -0.27300000       341.40100       2.0115103     0.014732709
       535.99999       288.98225       98876.883       14758.122       4.0265000      -2.0237500      0.38175000       341.66900       2.1027174     0.024025188
       541.00000       289.01231       98880.363       14766.206       4.3460000      -2.1502500      0.26800000       341.44900       2.0647203     0.021197423
       547.00001       289.04796       98880.277       14776.427       4.5482500      -1.2870000     -0.11325000       340.79300       2.0362867     0.014792704
       551.99998       289.07731       98880.241       14784.834       1.9950000      -1.2985000      0.18950000       341.15300       1.9865274     0.014501556
       557.00000       289.10632       98880.394       14793.119       3.3835000     0.090000000     -0.46525000       341.45800       2.0863782     0.020079033
       562.00001       289.13501       98880.465       14801.324       1.8400000     -0.79150000     0.075250010       342.32500       1.9439561     0.011618923
       566.99998       289.16336       98880.563       14809.433       2.5937500      -1.0710000      0.28100000       342.56000       1.9758067     0.017721348
       572.00000       289.19139       98880.295       14817.508       4.0607500      -1.9397500     -0.13225000       340.95000       2.0492432     0.011724216
       577.00001       289.21909       98880.255       14825.457       3.3870000      -1.7927500     -0.76225010       341.36000       2.0534488     0.020554651
       581.99998       289.24646       98880.087       14833.338       3.9067500      -1.9685000     -0.20600000       341.61600       1.9511169     0.012002529
       586.99999       289.27350       98884.600       14840.417       3.0700000      -1.3290000      0.28975000       342.24500       1.9225442     0.011229634
       592.00001       289.30021       98881.995       14848.493       3.2917500      -1.7832500     -0.73825000       341.74200       1.9718160     0.010234790
       596.99998       289.32659       98868.171       14858.195       3.4275000      -1.3035000      0.48575000       342.45300       1.9945067     0.017540095
       601.99999       289.35264       98863.910       14866.355       4.5612500      -1.6157500      0.42050000       342.12800       1.9505952     0.016012685
