MIRICO/SHELL project - Processed LDS file generated on
Sun Jul 23 23:50:57 2017
Time stamp for record start
05/12/2017  12:01:14.0000
Nb of points in the record
         918
Beam position index
       4.0000000
Beam angle (degrees)
    -0.040000000
Open Path length (m)
       98.010000
****************** Temporal data record ************************
Elapsedtime_sec Temp_K Press_Pa Humidity_ppmv WindX_m/s WindY_m/s WindZ_m/s Speedofsound_m/s CH4vmr_ppmv CH4vmrerror_ppmv  
      0.00000000       287.83724       98877.638       14123.168       3.9542500     -0.87425010      0.57500000       341.01000       1.8912717     0.012219378
       5.0000131       287.81311       98867.755       14066.607       4.0190000      -1.1805000      0.61675000       341.23000       1.9007760     0.010428009
       9.9999860       287.85202       98855.204       14022.686       3.7650000     -0.72400000     -0.15250000       341.14600       1.8987091    0.0098835089
       14.999999       287.84218       98850.002       13955.956       4.3107500      0.23625000      0.42700000       341.07000       1.9035582     0.010290008
       20.000012       287.85719       98841.283       13901.698       4.2400000      0.17725000    -0.039250000       341.07500       1.9122699     0.010303008
       25.000025       287.84866       98845.364       13845.818       3.5547500      -1.1460000      0.34450000       341.34100       1.8875621     0.011155087
       29.999998       287.78829       98864.129       13740.442       2.9317500     -0.28000000     -0.54150000       340.95200       1.8923855    0.0099987495
       35.000011       287.79616       98871.304       13725.788       3.6202500     -0.45400000     -0.15575000       341.14300       2.0500214     0.010884511
       40.000024       287.84578       98881.877       13769.905       3.8775000      -1.4640000     -0.19425000       341.04600       1.9053855    0.0098366015
       44.999997       287.86581       98883.378       13791.826       4.6295000      -1.9492500      -1.4012500       341.11300       1.9173901     0.010566102
       50.000010       287.91157       98874.703       13854.779       3.4812500     -0.74900000    -0.023000000       341.04500       1.9036569     0.010947610
       56.000018       287.85507       98876.387       13843.472       4.1592500      0.39725000     -0.42675000       341.13100       1.8828166     0.012906696
       60.999991       287.84394       98875.427       13854.631       4.0927500      0.54150000    0.0025000000       341.07400       1.9151869     0.010375321
       66.000004       287.84504       98874.439       13872.600       3.7367500      0.14925000     -0.34750000       340.97600       1.9215887    0.0094821536
       71.000017       287.84275       98877.511       13892.492       2.3750000    -0.087500010      0.32750000       341.19800       1.9480611    0.0096242959
       75.999990       287.85442       98872.069       13902.305       4.0630000     -0.37975000      0.24250000       341.18000       1.8839919     0.011784970
       81.000003       287.90603       98858.365       13931.786       3.0205000      -1.6117500     0.079500000       341.22600       1.9012664     0.011533180
       86.000016       287.88544       98857.879       13886.923       6.7145000     -0.52850000     -0.31625000       340.84900       1.9205001     0.010746952
       90.999989       287.89407       98858.468       13873.584       5.8645000      -1.6830000      0.87575010       341.00200       1.8833735     0.011520137
       96.000002       287.91533       98867.350       13857.907       5.4115000       1.4260000     -0.10800000       340.91100       1.8833170     0.010727894
       101.00002       287.94402       98875.255       13867.975       6.9927500     -0.10650000      0.27775000       340.74300       1.9115925     0.010144867
       105.99999       288.03035       98884.811       13943.640       6.8437500      0.26325000      -1.0295000       340.85900       1.9012794     0.010461166
       111.00000       288.06283       98890.886       13974.988       5.2792500      0.21075000       1.2655000       340.89400       1.8893420     0.011147973
       116.00001       288.07073       98895.725       13992.775       6.1655000      -1.3032500     -0.32300000       340.80200       1.9231576    0.0096698584
       120.99999       288.05736       98902.999       14006.256       4.8737500      -1.7825000      0.17750000       340.86400       1.9033284     0.011105665
       126.00000       288.04572       98900.470       14017.482       5.3152500      -2.0060000      0.15425000       340.87600       1.9420811     0.010120234
       131.00001       287.98792       98890.997       13990.025       5.8335000      -1.1837500     -0.25825000       340.89700       1.9382070    0.0096775378
       135.99999       288.04581       98883.258       14068.247       4.6510000      -1.9130000     -0.44225000       340.82400       1.8904054     0.011516705
       141.00000       288.05772       98875.219       14101.925       4.6347500      -1.8302500    0.0060000000       340.83700       1.9190712     0.010791495
       147.00001       288.04210       98864.272       14113.861       4.6800000     -0.36675000     -0.44275000       340.96800       1.9212370     0.010541488
       152.00002       288.05202       98858.377       14137.408       4.9637500     -0.18625000      0.79500000       340.98400       1.8933459     0.011007137
       156.99999       288.02819       98849.267       14113.479       4.4137500      -1.1240000     0.076750000       341.03300       1.9359449    0.0097731430
       162.00001       288.04095       98847.850       14142.058       3.5230000     -0.87325010      0.42625000       341.02400       1.9349383    0.0093499956
       167.00002       288.12414       98855.836       14242.905       5.1482500      -1.0600000     -0.36625000       340.82400       1.9032138     0.010597108
       171.99999       288.16318       98861.038       14300.386       4.4645000     -0.13100000     -0.59525000       340.89000       1.8833426     0.010481763
       177.00001       288.19044       98868.997       14370.367       4.3502500      -1.2230000      0.43225000       341.06800       1.9104132    0.0092736938
       182.00002       288.20944       98876.987       14411.106       6.0070000      0.70375000     -0.41375000       340.92400       1.9201093    0.0096433394
       186.99999       288.17160       98886.294       14373.384       3.9367500       1.4575000      0.38375000       341.07300       1.9050852     0.010351152
       192.00000       288.19408       98892.141       14404.231       2.5780000     -0.76625000      0.25450000       341.08600       1.8929175     0.010983335
       197.00002       288.28241       98901.095       14475.743       3.5172500       1.1785000     -0.41550000       341.18200       1.9225095     0.010208152
       201.99999       288.31103       98902.540       14525.624       3.0197500      -1.1037500      0.40575000       341.08500       1.8806209     0.012425345
       207.00000       288.37680       98894.994       14665.185       2.7915000      -2.1280000      0.11775000       341.13000       1.8873817     0.010534828
       212.00002       288.37168       98889.791       14688.459       4.4170000      -1.2145000      0.16350000       340.94700       1.9152490     0.011699121
       216.99999       288.22866       98881.800       14580.659       3.6170000     -0.82150010      0.25400000       341.14600       1.8761894     0.013756299
       222.00000       288.18106       98873.779       14545.262       4.6367500      -1.0565000      0.21750000       341.29100       1.8688107     0.012425071
       227.00002       288.14016       98865.734       14471.329       5.1087500     -0.54525000      0.24875000       340.82600       1.9131711    0.0097086588
       238.00000       288.24630       98846.312       14497.351       3.6737500     -0.29375000      0.30875000       341.05600       1.9135484    0.0095726299
       243.00001       288.26864       98842.496       14484.686       2.7105000     -0.75525000      0.26850000       341.25400       1.9201241     0.010728942
       248.00002       288.25816       98841.968       14424.160       1.9410000      -1.5105000      0.56250000       341.23200       1.8871225     0.012119146
       253.00000       288.25428       98845.219       14387.037       2.5552500      -1.2715000      0.22000000       341.32200       1.8698804     0.012014343
       258.00001       288.21799       98855.930       14323.234       1.5917500     -0.86200000      0.33725000       341.40000       1.9103335    0.0099693812
       263.00002       288.18767       98862.904       14285.460       4.9605000      -1.2085000      0.41725000       341.06700       1.9121117     0.010261685
       267.99999       288.17390       98870.600       14281.898       2.1812500      -2.0765000      0.72150000       341.46700       1.9100930     0.011731736
       273.00001       288.14010       98878.576       14256.546       3.5155000      -2.5137500    -0.024000000       341.28500       1.9033918     0.010214673
       278.00002       288.05337       98890.203       14215.624       1.6027500      -2.0120000      0.47575000       341.30900       1.8841705     0.010397798
       282.99999       288.03112       98893.061       14194.388       2.2810000      0.18275000      0.14700000       341.38900       1.9297711     0.010567005
       288.00001       288.02973       98891.675       14158.870       3.5067500     -0.11525000     0.063750010       341.45400       1.8989921     0.011682615
       293.00002       288.04682       98890.966       14162.564       4.0840000      -1.0937500      0.22675000       341.18500       1.8869380    0.0099962090
       297.99999       288.14547       98881.405       14227.105       2.9480000      -1.0997500      0.23700000       341.38400       1.8930911     0.010155082
       303.00001       288.16786       98878.208       14237.593       3.1382500     -0.93225000      0.14825000       341.41500       1.9137647     0.010437573
       308.00002       288.15695       98881.550       14250.267      -65.536000      -65.536000      -65.536000       307.23200       1.8903647    0.0099700879
       312.99999       288.15350       98880.156       14242.822       3.3770000      -1.4707500     -0.85050000       341.36800       1.8400047     0.015689066
       318.00001       288.09193       98878.918       14170.806       2.2245000      -1.2155000     0.062250000       341.16800       1.9042197     0.010351985
       323.00002       288.08901       98874.179       14150.928       2.5197500     -0.49700000   -0.0072500000       341.54000       1.8850832     0.010693076
       329.00003       288.13091       98863.144       14157.714       3.0562500      -1.7370000      0.59350000       341.40400       1.8921188     0.012108621
       334.00000       288.16694       98856.210       14159.914       2.1450000     -0.15850000    -0.076250000       341.80500       1.8935102     0.010789701
       339.00001       288.24106       98845.171       14182.632       6.3975010      -1.7402500     0.040750000       341.23600       1.9109708     0.010035419
       344.00003       288.27496       98842.072       14192.177       4.2747500     -0.70525000      0.68750010       341.46000       1.8580758     0.012823889
       349.00000       288.27715       98844.639       14175.693      -65.536000      -65.536000      -65.536000       307.23200       1.8961721     0.012851809
       354.00001       288.32387       98845.316       14207.107       3.5140000      -2.0825000      0.39050000       341.35800       1.8742970     0.013265796
       359.00002       288.37426       98847.969       14256.994       3.9942500     -0.64175000     -0.96325000       340.89800       1.8447841     0.014880904
       364.00000       288.43044       98852.585       14319.203       3.6082500     -0.78050010     -0.13175000       341.30400       1.9129785     0.011064672
       369.00001       288.55275       98857.704       14424.621       2.8622500      -1.4415000      0.16075000       341.44600       1.8892554     0.012192779
       374.00002       288.58367       98863.353       14503.344       2.6225000     -0.57400000     -0.30150000       341.43800       1.8994300     0.010969758
       379.00000       288.54582       98874.432       14570.219       3.8765000      -1.8442500     -0.33850000       341.34500       1.9090422     0.010582904
       384.00001       288.55565       98879.173       14653.389       3.3610000     -0.89100000    -0.037250000       341.20100       1.8864428     0.010792331
       389.00002       288.54273       98880.368       14764.152       3.4865000      -1.3452500     -0.19550000       341.26500       1.9121824     0.010295461
       394.00000       288.54954       98881.782       14818.895       5.2707500      -2.0392500      0.17675000       341.13300       1.8997856     0.011217245
       399.00001       288.61010       98880.384       14880.739       3.0140000     -0.90400000      0.34600000       341.56800       1.9090222     0.010502992
       404.00002       288.60787       98880.427       14877.575       5.3857500      -1.0475000     -0.21750000       341.21300       1.8974577     0.011171985
       408.99999       288.55722       98880.243       14788.731       4.4882500      0.11300000     -0.72000000       341.33000       1.9083317     0.010761119
       414.00001       288.53717       98880.243       14741.666       2.8510000     -0.65775000      0.91750000       341.53200       1.9050119     0.010261073
       420.00002       288.49722       98880.449       14667.793       4.5937500    -0.049000000      0.28300000       341.43100       1.9300133    0.0094184179
       424.99999       288.48611       98880.542       14613.090       3.4567500      -1.3382500     -0.83725010       341.21800       1.8823827     0.011430383
       430.00000       288.49968       98881.169       14569.807       3.9022500     -0.63025000     0.010000000       341.28100       1.8414710     0.016419884
       435.00001       288.49956       98879.285       14519.004       3.1117500      -1.0450000     -0.16250000       341.46700       1.9060113    0.0099251158
       439.99999       288.49148       98877.392       14439.995       5.2502500     -0.77625010      0.20100000       340.92900       1.8948756     0.010980559
       445.00000       288.51044       98871.604       14429.531       7.0207510      -1.4525000     -0.53675000       341.29000       1.9128402     0.010851595
       450.00001       288.54684       98858.844       14448.179       4.1452500     -0.93675010    0.0015000000       341.51600       1.8955941     0.010946534
       454.99999       288.56689       98857.467       14477.636       4.4910000      -1.9645000     -0.50100000       340.77400       1.9223594    0.0096225679
       460.00000       288.61197       98861.657       14561.577       4.5935000      -2.0210000      0.48275000       341.23000       1.8876496     0.011892070
       465.00001       288.60430       98857.834       14598.944       4.0430000      -2.1417500    -0.052250000       341.02700       1.8840176     0.013090446
       470.00003       288.55393       98857.273       14621.597       4.3867500      -1.9690000     -0.22500000       341.13400       1.8824106     0.012711452
       475.00000       288.53402       98853.625       14652.200       3.6475000     -0.63175000      0.64500000       341.46100       1.8877144     0.011973681
       480.00001       288.48774       98838.528       14674.145       3.8300000      -1.7977500      0.23875000       341.69300       1.8787895     0.010416403
       485.00002       288.49552       98837.095       14703.780       4.3080000      0.67775010      0.71200000       341.64300       1.8987411     0.011304081
       490.00000       288.53785       98844.952       14763.009       4.7557500     -0.88975010      0.41300000       341.59800       1.9007171     0.010556332
       495.00001       288.57716       98847.000       14749.974       3.6407500     0.011000000      0.41250000       341.18900       1.9019606     0.010439784
       500.00002       288.64146       98848.758       14691.834       4.0975000     -0.32475000      0.46925000       341.41200       1.8982437     0.011374074
       505.99999       288.68538       98856.522       14603.472       2.9845000      -1.4737500      0.63950000       341.45300       1.9184993     0.010147129
       511.00000       288.74372       98860.587       14590.820       3.5670000      -1.4907500     -0.14475000       341.48700       1.9064548     0.010771434
       516.00002       288.81434       98864.666       14625.969       3.1775000      -2.3117500     -0.25800000       341.27000       1.9075033     0.010726094
       520.99999       288.90703       98870.896       14751.246       2.5222500      -1.8390000      0.88150010       341.86300       1.8805390     0.011836278
       526.00000       288.97988       98874.747       14811.385       5.2770000      -2.8367500     -0.25325000       341.24300       1.9037724     0.014588691
       531.00002       288.95795       98875.271       14751.407       3.6612500      -1.5622500      0.27925000       341.63300       1.9014713     0.012138233
       535.99999       288.98829       98878.615       14759.590       4.3427500     -0.60850000     -0.45225000       341.75900       1.8960342     0.011187793
       541.00000       289.01829       98880.675       14767.870       3.6365000      -1.4612500      0.54650000       341.60800       1.9035433     0.011503852
       546.00002       289.04796       98880.277       14776.427       4.0277500      -1.0167500     -0.15925000       340.80900       1.8708935     0.012591386
       550.99999       289.07731       98880.241       14784.834       2.4015000      -1.6412500      0.34825000       341.22000       1.9345384     0.012074915
       556.00000       289.10632       98880.394       14793.119       2.7027500      0.16750000     0.048500000       341.53900       1.8868896    0.0094873330
       561.00001       289.13501       98880.465       14801.324       2.7875000     -0.23725000      0.12500000       342.17700       1.9003366     0.010323634
       565.99999       289.16336       98880.563       14809.433       2.7307500      -1.4062500    -0.076750000       342.10400       1.8939591     0.010544119
       571.00000       289.19139       98880.295       14817.508       4.7705000      -1.8105000     -0.13300000       341.34700       1.8880671     0.011140653
       576.00001       289.21909       98880.255       14825.457       2.6400000      -2.0350000     0.010000000       342.17400       1.8949968    0.0096700027
       580.99999       289.24646       98880.087       14833.338       3.4897500      -2.1172500    -0.097500000       341.56900       1.8886799     0.011334421
       586.00000       289.27350       98884.600       14840.417       3.3247500      -2.1590000     -0.61975000       341.97800       1.9168933    0.0093029287
       591.00001       289.30021       98881.995       14848.493       3.2822500      -2.0700000     -0.85000000       341.72300       1.8963659    0.0097669120
       597.00002       289.33183       98867.123       14859.864       3.7372500      -1.8180000     -0.70125000       341.76400       1.8863862     0.010122377
       601.99999       289.35781       98863.352       14867.932       4.7827500     -0.86975000     -0.48950000       342.09300       1.8690893    0.0094260409
       607.00001       289.38347       98859.882       14875.871       3.4617500      -1.7885000      0.73150000       342.58500       1.8576581     0.011242232
