MIRICO/SHELL project - Processed LDS file generated on
Sun Jul 23 22:16:17 2017
Time stamp for record start
05/12/2017  12:01:14.0000
Nb of points in the record
         918
Beam position index
       5.0000000
Beam angle (degrees)
       8.5250000
Open Path length (m)
       83.010000
****************** Temporal data record ************************
Elapsed time   Temp   Press   Humidity   Wind X   Wind Y   Wind Z   Speed of sound   CH4 vmr   CH4 vmr error  
Seconds   Kelvin   Pa   ppmv   m/s   m/s   m/s   m/s   ppmv   ppmv  
      0.00000000       287.83724       98877.638       14123.168       3.1405000     -0.86375000      0.72400000       341.11300       1.8840166     0.012000793
       5.0000131       287.81311       98867.755       14066.607       4.3415000      -1.3190000     -0.69150000       341.06800       1.8759065     0.015009253
       9.9999860       287.85202       98855.204       14022.686       3.2575000     -0.95575000     0.082250010       341.13100       1.8776805     0.016634745
       15.999994       287.85513       98843.317       13943.747       3.4227500     -0.18875000     0.016000000       341.15400       1.8803078     0.011579893
       21.000007       287.85647       98841.510       13890.814       3.5450000     -0.73150000      0.14100000       341.19400       1.9034594     0.012659152
       26.000020       287.84547       98847.063       13834.210       3.7757500      -1.1222500      0.75675000       341.29100       1.9308100     0.010663620
       30.999993       287.78785       98865.657       13734.306       3.3605000      0.36500000     -0.56050000       341.06300       1.8841362     0.014030152
       36.000006       287.80076       98872.599       13727.664       3.5367500     -0.40075000      0.49725000       341.10800       1.8886170     0.010766328
       41.000019       287.84979       98882.580       13773.359       3.4922500      -1.8667500     0.050500000       341.23800       1.9050005     0.011533730
       45.999992       287.89930       98875.737       13830.601       4.7855000     -0.43275000      0.37750000       341.09500       1.8562021     0.015209841
       51.000005       287.91211       98874.575       13859.161       2.9642500      -1.4527500      0.85425000       341.10000       1.8867597     0.016745840
       56.000018       287.85507       98876.387       13843.472       4.0907500     -0.79150000     -0.44150000       340.97500       1.9146471     0.012127653
       60.999991       287.84394       98875.427       13854.631       3.9867500    -0.074000000     -0.19675000       341.09600       1.8764499     0.014105993
       66.000004       287.84504       98874.439       13872.600       3.6917500      0.89775000     0.063000000       341.02500       1.8781127     0.016578152
       71.000017       287.84275       98877.511       13892.492       2.1665000     0.097250010      0.65050010       341.24700       1.9335756     0.010297778
       75.999990       287.85442       98872.069       13902.305       5.7250000     -0.65800010      0.57900010       341.07600       1.9220346     0.012575320
       81.000003       287.90603       98858.365       13931.786       2.2452500     -0.45275000     -0.29925000       341.16400       1.8863373     0.015438456
       86.000016       287.88544       98857.879       13886.923       6.4865000     -0.51775000      0.22950000       340.91900       1.9119069     0.013780664
       90.999989       287.89407       98858.468       13873.584       7.0530000      -2.2205000      0.68625000       340.96200       1.9212208     0.010848462
       96.000002       287.91533       98867.350       13857.907       6.7395010       1.0782500      -1.6390000       340.83300       1.9225972     0.013641173
       101.00002       287.94402       98875.255       13867.975       7.1192500     -0.37950000      0.22000000       340.81400       1.9278476     0.010020287
       107.00002       288.03881       98886.125       13950.991       6.9275000     -0.17125000     -0.13800000       340.73200       1.9158193     0.012776955
       112.00000       288.06638       98891.953       13979.632       5.6340000      0.51125000      0.37600000       340.91600       1.9039964     0.013102868
       117.00001       288.05735       98901.381       13990.980       4.4150000      0.33650000      0.63150000       341.02900       1.9146511     0.012598486
       122.00002       288.05606       98902.898       14009.202       5.7617500      -2.3455000     -0.12625000       340.83200       1.9046929     0.010234252
       127.00000       287.99610       98894.975       13979.986       5.1145000      -2.7355000      0.28800000       340.82800       1.8851308     0.019606371
       132.00001       287.98837       98889.880       13994.840       4.3480000      -1.1402500       1.4622500       341.02800       1.9121424    0.0098497884
       137.00002       288.04923       98881.646       14076.125       4.7272500      -1.7465000     -0.47725000       340.82800       1.9362643    0.0096449516
       141.99999       288.05854       98873.618       14106.945       4.1725000      -1.8932500    -0.033750000       340.90000       1.9291327     0.012981697
       147.00001       288.04210       98864.272       14113.861       4.0870000      0.70225000     -0.82650010       340.99000       1.8914008     0.010388183
       152.00002       288.05202       98858.377       14137.408       4.6722500      -1.4150000     -0.44575000       340.95200       1.9038566     0.012197397
       156.99999       288.02819       98849.267       14113.479       5.5025000      -1.4060000     0.065250000       340.86300       1.9245349     0.011891075
       162.00001       288.04095       98847.850       14142.058       4.1440000      0.29050000      0.21400000       340.99900       1.8986235     0.011317677
       167.00002       288.12414       98855.836       14242.905       4.6210000     -0.58325000     0.097250010       340.79600       1.9099119     0.010727822
       171.99999       288.16318       98861.038       14300.386       4.1077500     -0.31675000     -0.13150000       340.98500       1.8422729     0.013714997
       177.00001       288.19044       98868.997       14370.367       3.1572500     -0.31575000      0.46925000       341.14200       1.8957959     0.015290865
       182.00002       288.20944       98876.987       14411.106       5.8645000      0.46900000     -0.49825000       340.91400       1.9312149     0.013473497
       186.99999       288.17160       98886.294       14373.384       3.6372500     -0.47150000      0.18550000       341.19100       1.8723721     0.016351204
       192.00000       288.19408       98892.141       14404.231       3.0070000      0.20075000      0.68050000       341.17200       1.9031564     0.015001357
       198.00001       288.28912       98901.780       14485.174       5.0000000      0.28425000      0.32225000       341.07800       1.9064668     0.011992438
       203.00003       288.31527       98902.236       14536.419       4.1242500      -1.2402500     -0.36025000       340.94100       1.8939128     0.011027796
       208.00000       288.37984       98894.060       14674.773       3.5180000      -1.6007500      0.33200000       340.98700       1.9184396     0.012678173
       213.00001       288.36456       98888.590       14685.708       4.1332500      -1.0920000      0.23450000       341.01900       1.9265102     0.010825111
       218.00002       288.21713       98880.195       14573.447       3.7722500      0.25375000     0.023000000       341.07000       1.9139820     0.014550680
       223.00000       288.17456       98872.176       14538.381       4.6322500     -0.41200000     -0.42375000       341.23300       1.9144792     0.012759347
       228.00001       288.13580       98864.321       14461.270       4.7280000     -0.23925000     -0.34275000       340.87300       1.8945000     0.012830685
       233.00002       288.13662       98857.314       14429.795       4.1050000     -0.60075000     -0.45875000       340.93500       1.9251083     0.010886431
       238.00000       288.24630       98846.312       14497.351       3.1562500     -0.36275000    -0.071500000       341.17100       1.8615735     0.013626097
       243.00001       288.26864       98842.496       14484.686       2.6642500      -1.1080000    -0.082750010       341.31300       1.8972834     0.011598416
       248.00002       288.25816       98841.968       14424.160       2.8957500      -1.3005000      0.30100000       341.27600       1.8946762     0.010717071
       253.00000       288.25428       98845.219       14387.037       2.1122500     -0.94750010      0.55950000       341.37600       1.8974920     0.012569005
       258.00001       288.21799       98855.930       14323.234       1.4535000     -0.77600000      0.15325000       341.45700       1.9392674     0.014674594
       263.00002       288.18767       98862.904       14285.460       3.3647500     -0.59100000     -0.38975000       340.97500       1.8822954     0.016425597
       267.99999       288.17390       98870.600       14281.898       2.1407500      -1.1597500      0.36575000       341.30200       1.8948042     0.013832067
       273.00001       288.14010       98878.576       14256.546       3.3142500      -1.6322500      0.38425000       341.31700       1.8916392     0.014165907
       278.00002       288.05337       98890.203       14215.624       2.5240000      -1.6550000       1.3167500       341.41400       1.8974523     0.013692646
       282.99999       288.03112       98893.061       14194.388       2.7630000      0.37875000      0.83600000       341.49900       1.8709284     0.012304290
       289.00000       288.03117       98891.729       14157.757       3.4032500     -0.20950000    -0.018250000       341.33300       1.8629763     0.017862092
       294.00001       288.05320       98890.529       14166.081       4.0035000     -0.20675000      0.13975000       341.27200       1.8919755     0.012282149
       298.99999       288.15194       98880.564       14230.192       2.8207500      -1.1825000    -0.018000000       341.50900       1.8848748     0.012238228
       304.00000       288.16934       98877.870       14238.207       3.2232500    -0.042500000      0.41200000       341.37600       1.8856236     0.013339269
       309.00001       288.15726       98881.373       14250.406      -65.536000      -65.536000      -65.536000       307.23200       1.9082722     0.012879031
       313.99999       288.15132       98879.726       14238.892       2.8347500     -0.74500010      0.31150000       341.41700       1.9234605     0.012119824
       319.00000       288.08932       98878.167       14165.448       2.7325000      -1.2002500      0.38900000       341.42800       1.8798392     0.015601282
       324.00001       288.09147       98872.936       14149.022       2.8687500    -0.012000000     -0.19825000       341.26900       1.8704951     0.014651017
       329.00003       288.13091       98863.144       14157.714       2.7002500      -1.5465000     -0.18225000       341.42800       1.8777525     0.012756639
       334.00000       288.16694       98856.210       14159.914       2.0707500     -0.27150000      0.26375000       341.43500       1.8973240     0.014226202
       339.00001       288.24106       98845.171       14182.632       6.1217500      -3.0720000     -0.75325010       340.97800       1.9274633     0.012334091
       344.00003       288.27496       98842.072       14192.177       3.8992500      -1.7192500     -0.15375000       341.27000       1.8869562     0.012569459
       349.00000       288.27715       98844.639       14175.693      -65.536000      -65.536000      -65.536000       307.23200       1.8904162     0.017119045
       354.00001       288.32387       98845.316       14207.107       4.5252500      -1.8062500      0.39825000       341.29800       1.9194066     0.012162394
       359.00002       288.37426       98847.969       14256.994       3.0107500      -1.0535000     0.068750000       341.11700       1.9091109     0.011200629
       364.00000       288.43044       98852.585       14319.203       4.1922500     -0.92125000     -0.10575000       341.19300       1.9232906     0.011582060
       369.00001       288.55275       98857.704       14424.621       2.3440000      -1.5497500      0.11750000       341.42800       1.9142606     0.013536535
       374.00002       288.58367       98863.353       14503.344       3.0557500     -0.66800000     -0.11575000       341.60400       1.9153608     0.013162506
       379.99999       288.54778       98875.578       14586.457       3.5660000      -1.3622500     -0.30475000       340.92400       1.8985693     0.012260671
       385.00000       288.55762       98879.825       14670.618       3.2672500      -1.4830000   -0.0050000000       341.20300       1.9016184     0.011941037
       390.00002       288.54306       98880.752       14776.808       3.9152500      -1.5552500      -1.0830000       341.21900       1.9130075     0.012341322
       394.99999       288.55246       98881.914       14827.286       4.2162500      -2.2085000      0.49375000       341.50000       1.9295727     0.014826516
       400.00000       288.61165       98880.391       14883.692       4.4362500      -1.4810000     0.029750000       341.18900       1.8910529     0.011920452
       405.00002       288.60443       98880.437       14871.566       4.8497500     -0.56625000      0.53300010       341.34200       1.9124339     0.013910968
       409.99999       288.55318       98880.243       14779.633       4.6197500     -0.81775000      0.61350010       341.09000       1.9015125     0.013294038
       415.00000       288.53319       98880.243       14731.780       4.0902500      -1.6350000      0.12325000       341.42500       1.8917853     0.012113667
       420.00002       288.49722       98880.449       14667.793       4.1312500     -0.55275010     -0.54875000       340.99800       1.9054715     0.013084692
       424.99999       288.48611       98880.542       14613.090       4.2717500      -1.9120000     -0.99350010       341.09300       1.8749514     0.012939109
       430.00000       288.49968       98881.169       14569.807       3.4857500     -0.99425010     0.021000000       341.43800       1.8870516     0.015360536
       435.00001       288.49956       98879.285       14519.004       1.5190000     -0.95525000      0.10425000       341.69900       1.9091600     0.012749777
       439.99999       288.49148       98877.392       14439.995       4.8462500     -0.18450000      0.17150000       340.83200       1.8870318     0.012487156
       445.00000       288.51044       98871.604       14429.531       6.1255000     -0.79550000     0.076000010       341.35000       1.9832234     0.011070571
       450.00001       288.54684       98858.844       14448.179       4.1052500     -0.63425000      0.18950000       341.58000       1.8921040     0.015380756
       454.99999       288.56689       98857.467       14477.636       3.0960000      -1.1110000     -0.84650000       341.14600       1.8829373     0.018399853
       460.00000       288.61197       98861.657       14561.577       4.7470000     -0.67875000      0.16375000       341.43400       1.8887330     0.010187187
       465.00001       288.60430       98857.834       14598.944       4.1822500      -1.8457500     -0.16250000       340.97400       1.9219289     0.012669022
       471.00002       288.54994       98856.740       14627.876       4.8790000      -1.8310000     -0.46525000       341.03500       1.8929715     0.013903878
       475.99999       288.53004       98852.601       14658.084       3.2615000      -1.1130000      0.59650000       341.69600       1.9012297     0.014961341
       481.00001       288.48727       98837.838       14679.822       3.9625000     -0.80625000     -0.68000000       341.38700       1.8998742     0.011125357
       486.00002       288.50011       98837.414       14710.084       3.6762500     0.073000010      0.11300000       341.15500       1.8953796     0.015540447
       490.99999       288.54470       98845.360       14762.910       4.9295000     -0.18850000     -0.17275000       341.28700       1.9308242     0.010291158
       496.00001       288.60098       98845.774       14708.020       3.4280000      0.27275000      0.38625000       341.40900       1.9005126     0.013653208
       501.00002       288.65154       98849.630       14687.565       4.6250000      0.11875000     -0.45825000       341.03800       1.8892834     0.012394021
       505.99999       288.68538       98856.522       14603.472       3.1432500     -0.72175000      0.15575000       341.60400       1.9284091     0.011004984
       511.00000       288.74372       98860.587       14590.820       4.3057500      -2.2955000     -0.52300000       341.11000       1.8775129     0.017278065
       516.00002       288.81434       98864.666       14625.969       3.5132500      -1.7160000     -0.25500000       341.15900       1.8689732     0.014699982
       520.99999       288.90703       98870.896       14751.246       3.0632500      -2.3517500      0.43450000       341.79400       1.9116009     0.011022733
       526.00000       288.97988       98874.747       14811.385       4.8130000      -1.2507500     -0.86500010       341.06300       1.8981727     0.014529826
       531.00002       288.95795       98875.271       14751.407       3.9732500      -2.8725000     -0.55775000       341.83500       1.9029949     0.012679692
       535.99999       288.98829       98878.615       14759.590       3.6650000     -0.93475000    -0.034250000       341.52900       1.8993527     0.014683228
       541.00000       289.01829       98880.675       14767.870       3.3240000     -0.41900000       1.2465000       342.02300       1.8838105     0.012546034
       546.00002       289.04796       98880.277       14776.427       4.0035000     -0.70500000     -0.21600000       340.81400       1.8850664     0.012947228
       550.99999       289.07731       98880.241       14784.834       3.0647500      -1.2795000      0.57875000       341.32300       1.9075420     0.011951206
       557.00000       289.11208       98880.406       14794.768       3.0290000     -0.86675010     0.096250010       341.60800       1.9301265    0.0098603745
       562.00001       289.14070       98880.482       14802.954       2.2757500     -0.89900000    -0.035500000       342.27600       1.8993058     0.013533018
       567.00002       289.16899       98880.306       14811.086       3.4390000     -0.97200010     -0.16550000       341.74100       1.8895138     0.014596370
       572.00000       289.19696       98880.289       14819.104       4.3275000      -1.4002500    -0.025250000       341.16900       1.8919632     0.012017529
       577.00001       289.22459       98880.145       14827.052       2.2342500      -2.5152500     -0.52075000       341.68000       1.8605524     0.012605695
       582.00002       289.25189       98880.070       14834.901       4.0195000      -1.7387500      0.24100000       341.84500       1.9406994     0.011118904
       586.99999       289.27887       98884.382       14841.993       3.2442500      -1.3990000      0.33550000       342.04400       1.9200367    0.0096199295
       592.00001       289.30551       98881.019       14850.168       3.3622500      -1.9005000     -0.43375000       342.02200       1.8681709     0.012320859
       597.00002       289.33183       98867.123       14859.864       2.3350000      -2.2092500     0.062500000       342.78200       1.8415917     0.017271029
       601.99999       289.35781       98863.352       14867.932       4.5052500      -1.8750000     -0.35425000       341.35400       1.8724962     0.013336267
