MIRICO/SHELL project - Processed LDS file generated on
Mon Jul 24 19:28:13 2017
Time stamp for record start
05/12/2017  12:01:15.0000
Nb of points in the record
         918
Beam position index
       6.0000000
Beam angle (degrees)
       13.594000
Open Path length (m)
       58.300000
****************** Temporal data record ************************
Elapsedtime_sec Temp_K Press_Pa Humidity_ppmv WindX_m/s WindY_m/s WindZ_m/s Speedofsound_m/s CH4vmr_ppmv CH4vmrerror_ppmv  
      0.00000000       287.82935       98875.758       14110.907       3.3637500     -0.87275000      0.30375000       341.08300       2.0797589     0.013072239
       5.0000131       287.85989       98861.136       14074.330       4.0605000      -1.9987500     -0.69700000       341.05100       2.1143279     0.014820291
       10.000026       287.85005       98853.967       14009.533       2.6132500      0.30350000      0.37325000       341.18800       2.0406866     0.015204766
       14.999999       287.85513       98843.317       13943.747       2.9822500      0.63950000    -0.048250000       341.16800       2.0516778     0.011895434
       20.000012       287.85647       98841.510       13890.814       3.8665000     -0.70625000     0.013500000       341.11600       2.0400762     0.011780623
       25.000025       287.84547       98847.063       13834.210       4.8682500      -3.0592500     -0.12725000       341.13100       2.0673758     0.013345543
       29.999998       287.78785       98865.657       13734.306       4.2420000      0.91975000      0.16675000       341.13100       2.1294877     0.017040594
       35.000011       287.80076       98872.599       13727.664       2.9757500      0.80525000      0.27550000       341.21800       2.1523019     0.014280998
       40.000024       287.84979       98882.580       13773.359       3.3930000      -2.5807500      0.12500000       341.10500       2.0475273     0.011934908
       44.999997       287.89930       98875.737       13830.601       5.3482500     -0.88850000      0.70375000       341.00600       2.0640839     0.013180845
       50.000010       287.91211       98874.575       13859.161       3.2817500     -0.49450000     0.085000000       341.16600       2.0372068     0.015965583
       55.000024       287.85507       98876.387       13843.472       3.4745000      0.16700000      0.33875000       341.14200       2.1078636     0.016286760
       59.999996       287.84394       98875.427       13854.631       5.5057500     -0.14925000     -0.48800000       340.90500       2.0803069     0.013616465
       65.000010       287.84504       98874.439       13872.600       3.7765000      0.83475010      0.18875000       341.10000       2.0839570     0.012589740
       71.000017       287.84405       98876.730       13894.525       3.9712500      0.17150000   -0.0087500000       341.05500       2.0625965     0.014965639
       76.000030       287.88994       98861.586       13926.515       4.7985000      0.82050000      0.10775000       341.12600       2.1000893     0.013288632
       81.000003       287.90880       98857.934       13931.253       2.6212500     -0.76025000      0.30200000       341.25300       2.0540536     0.013712536
       86.000016       287.88616       98857.700       13883.373       5.7692500      0.10650000      0.18925000       340.90600       2.0877754     0.015512676
       91.000029       287.89730       98859.031       13872.239       6.1205000      -1.1970000     -0.43275000       340.92800       1.9228243     0.015679324
       96.000002       287.92009       98868.932       13858.170       7.5312500       1.5960000     -0.53950000       341.03700       2.0496328     0.018828986
       101.00002       287.95124       98876.834       13872.618       7.8282500      0.43975000     -0.11550000       340.87800       2.0076081     0.021121489
       106.00003       288.03881       98886.125       13950.991       6.3535000      0.95500000     -0.27525000       340.83100       1.8395342     0.024731837
       111.00000       288.06638       98891.953       13979.632       5.8480000     -0.79600010    -0.075500000       340.87700       1.9605318     0.018416034
       116.00001       288.05735       98901.381       13990.980       6.1907500      -1.2850000     -0.47775000       340.81500       1.8151245     0.018014778
       121.00003       288.05606       98902.898       14009.202       5.2317500      -1.6342500     -0.54800000       340.76000       1.9386398     0.025296560
       126.00000       287.99610       98894.975       13979.986       4.4882500      -1.5167500     -0.25700000       340.97100       2.0213241     0.023963619
       131.00001       287.98837       98889.880       13994.840       4.9580000      -2.4855000      0.24350000       340.85400       1.9747064     0.021434136
       136.00003       288.04923       98881.646       14076.125       5.0567500      -3.2772500     -0.52550000       340.88900       2.0302141     0.023793467
       141.00000       288.05854       98873.618       14106.945       3.9697500      -1.8725000     -0.17850000       340.96000       2.0291710     0.016620137
       146.00001       288.04210       98864.272       14113.861       4.3765000      -1.2742500     -0.33725000       341.09100       2.0342359     0.013222184
       151.00003       288.05202       98858.377       14137.408       5.1577500     -0.85875000     -0.60175000       340.93600       2.0925317     0.013766510
       156.99999       288.02870       98848.579       14116.823       4.7572500      -1.1680000      0.27025000       340.95900       2.0659566     0.014149700
       162.00001       288.04657       98848.173       14151.339       4.2157500      0.12575000      0.13375000       340.97900       2.0909885     0.015725838
       167.00002       288.13295       98856.776       14254.973       4.5897500     -0.71475010      0.11500000       340.88000       2.1152866     0.014971029
       171.99999       288.16950       98862.229       14311.020       4.0450000      0.12375000      0.19900000       341.07000       2.0549031     0.015671740
       177.00001       288.19525       98870.600       14380.369       3.4782500     -0.51350000     -0.21825000       341.11200       2.0201399     0.019040840
       182.00002       288.21173       98878.576       14416.466       5.1897500      0.60250000     -0.19450000       340.88600       2.1101689     0.014671790
       186.99999       288.17413       98887.561       14377.687       5.5045000      0.27325000     -0.14325000       341.09200       2.0540111     0.015600356
       192.00000       288.20152       98893.163       14413.205       4.5922500     -0.28375000    -0.027250000       340.89100       2.0229914     0.014331479
       197.00002       288.28912       98901.780       14485.174       4.7165000      0.79125010      0.91350010       341.10300       2.0886693     0.015178310
       202.00003       288.31527       98902.236       14536.419       3.7687500     -0.86200000      0.23450000       340.95600       2.0716524     0.015821850
       207.00000       288.37984       98894.060       14674.773       4.1427500     -0.58850000     -0.80950000       340.90700       2.0628035     0.013182437
       212.00002       288.36456       98888.590       14685.708       3.7310000      -1.6330000      0.26100000       341.04100       2.0662997     0.017218350
       217.00003       288.21713       98880.195       14573.447       3.4577500      -1.0985000      0.16375000       341.17500       2.0266626     0.012817045
       222.00000       288.17456       98872.176       14538.381       4.4867500      -1.0817500     -0.29125000       341.14600       2.0554382     0.015816476
       227.00002       288.13580       98864.321       14461.270       4.6445000     -0.97025010     -0.26500000       340.88700       2.0759328     0.012387357
       232.00003       288.13662       98857.314       14429.795       4.6917500     -0.53275000      0.22925000       340.98000       2.0203185     0.013461656
       237.00000       288.24630       98846.312       14497.351       3.1360000      -1.4762500      0.33775000       341.24900       2.0829526     0.011574825
       242.00002       288.26864       98842.496       14484.686       2.2767500     -0.73525010      0.18675000       341.29900       2.0791069     0.013645756
       248.00002       288.25841       98842.310       14417.044       3.3100000      -1.3942500     -0.30850000       341.02400       2.0149365     0.016536954
       253.00000       288.25196       98846.331       14379.153       3.3127500      -1.3257500     0.010250000       341.35800       2.0257578     0.013217018
       258.00001       288.21193       98857.324       14314.601       1.7655000     -0.91825000     0.069000010       341.47400       2.0082395     0.013828272
       263.00002       288.18160       98864.301       14279.519       3.4650000      0.10800000     -0.20075000       341.06200       2.0455702     0.014517655
       267.99999       288.16812       98872.201       14277.211       2.5797500     -0.98100010      0.14475000       341.29500       2.0615849     0.013638048
       273.00001       288.13187       98880.163       14250.901       3.0422500      -1.8700000    -0.011750000       341.23500       2.0150229     0.013996042
       278.00002       288.04695       98891.070       14210.892       3.6977500      -2.3082500      0.92125000       341.06700       2.1018451     0.013699042
       282.99999       288.02961       98893.189       14190.867       2.5922500    -0.067750010      0.42150000       341.50900       2.0637810     0.015567598
       288.00001       288.03117       98891.729       14157.757       4.3357500      -1.1792500      0.30450000       341.34300       2.0721329     0.014118413
       293.00002       288.05320       98890.529       14166.081       4.0252500     -0.58125000      0.19125000       341.29800       2.0476083     0.014520677
       297.99999       288.15194       98880.564       14230.192       3.8655000      -2.6965000      -1.1537500       340.98500       2.0696332     0.017267192
       303.00001       288.16934       98877.870       14238.207       2.2972500      -1.0365000      0.44700000       341.47800       2.0500646     0.016923770
       308.00002       288.15726       98881.373       14250.406      -65.536000      -65.536000      -65.536000       307.23200       2.0639594     0.016283660
       312.99999       288.15132       98879.726       14238.892       1.4085000      -1.0757500      0.73125000       341.63800       1.9964887     0.012998816
       318.00001       288.08932       98878.167       14165.448       2.5710000      -1.0922500      0.10550000       341.31000       2.2108818     0.016938546
       323.00002       288.09147       98872.936       14149.022       2.6270000      -1.4670000     -0.40450000       341.15900       2.0000538     0.015705085
       328.00003       288.13091       98863.144       14157.714       2.4420000     -0.77925000      0.81275000       341.49300       2.0378518     0.013549950
       333.00000       288.16694       98856.210       14159.914       3.0785000      0.19500000     0.071000000       341.37900       2.0090763     0.014919235
       339.00001       288.24881       98844.252       14184.792       5.3882500      -2.9160000    -0.037500000       341.04100       2.0239881     0.014199539
       344.00003       288.28028       98841.903       14193.711       3.1902500      -1.2720000      0.96675000       341.60800       1.9868195     0.014504628
       349.00000       288.28549       98844.671       14180.339       5.1132500     -0.76125000     -0.30575000       341.48700       2.0594178     0.012740274
       354.00001       288.33472       98845.607       14215.851       4.0642500      -1.9977500     -0.98400000       340.93800       2.0347155     0.022196779
       359.00002       288.38454       98848.792       14267.998       2.7547500      -1.8502500     0.081750010       341.42000       1.9941205     0.017724584
       364.00000       288.44311       98853.658       14333.809       3.1090000     -0.80700000      0.49025000       341.15900       1.8504743     0.019200393
       369.00001       288.56188       98858.735       14440.622       3.5892500     -0.79150000      0.21900000       341.56000       2.0621986     0.014565630
       374.00002       288.58543       98864.631       14518.688       2.8282500      -1.5662500     -0.87825010       341.29300       2.0291599     0.013575936
       379.00000       288.54778       98875.578       14586.457       3.6065000      -1.6847500    -0.071500000       340.98100       2.0522105     0.014185048
       384.00001       288.55762       98879.825       14670.618       3.0815000      -2.3475000     -0.56075000       341.28700       2.0478928     0.013229861
       389.00002       288.54306       98880.752       14776.808       1.9890000      -1.9577500      0.44000000       341.52300       2.1244566     0.015781748
       394.00000       288.55246       98881.914       14827.286       4.8867500      -1.6827500      0.46350000       341.57700       2.0637262     0.012573005
       399.00001       288.61165       98880.391       14883.692       4.5530000      -2.5552500      -1.1655000       341.07800       2.0512150     0.014770105
       404.00002       288.60443       98880.437       14871.566       3.9290000      -1.7230000    -0.041750000       341.29100       1.9800146     0.013886903
       408.99999       288.55318       98880.243       14779.633       4.2207500     -0.56900000     -0.51625000       341.06500       2.1209944     0.019353832
       414.00001       288.53319       98880.243       14731.780       3.5990000     -0.59775000   -0.0065000000       341.05300       2.0732345     0.014686276
       419.00002       288.49722       98880.449       14667.793       4.6347500      -1.0507500      0.38050000       341.44000       2.0015056     0.023392181
       423.99999       288.48611       98880.542       14613.090       3.4105000      -2.9767500      -1.2577500       341.32400       1.8989285     0.020073131
       430.00000       288.49965       98880.892       14559.856       3.1922500      -1.5277500     0.043000000       341.74400       2.0804782     0.014144407
       435.00001       288.49954       98878.759       14508.529       1.7345000     -0.78850000      0.36125000       341.92900       1.9753327     0.016374669
       440.00003       288.49427       98876.436       14435.480       5.3395000    -0.049250000      -1.1262500       341.18600       2.0247777     0.020605612
       445.00000       288.53061       98862.716       14440.567       5.0510000      -1.2445000      0.42725000       341.72800       2.0517600     0.015368142
       450.00001       288.55088       98858.260       14452.296       4.7272500      -1.6847500     -0.46300000       340.94700       2.0233835     0.020121689
       455.00003       288.60036       98863.824       14524.730       3.5092500      -2.2080000     -0.12825000       341.23900       1.9374608     0.020000595
       460.00000       288.61240       98860.991       14569.828       4.0292500     -0.94225010     -0.17825000       341.07900       2.0611306     0.014373071
       465.00001       288.56985       98858.421       14595.692       4.4095000      -2.3365000     0.056250000       341.22100       2.0521636     0.022582133
       470.00003       288.54994       98856.740       14627.876       4.4390000      -1.5047500      0.25500000       341.25400       1.8977367     0.020855417
       475.00000       288.53004       98852.601       14658.084       3.6297500      -1.2507500      0.16775000       341.68600       2.0554430     0.014070944
       480.00001       288.48727       98837.838       14679.822       3.6150000     -0.87175010      0.13275000       341.59900       2.0240164     0.014163933
       485.00002       288.50011       98837.414       14710.084       4.9965000     0.024500000      0.75000010       341.20500       2.0175248     0.015288249
       490.00000       288.54470       98845.360       14762.910       4.5722500     -0.18950000      -1.3117500       341.23200       2.0386337     0.014116612
       495.00001       288.60098       98845.774       14708.020       3.9982500      0.20325000     -0.23200000       341.44200       2.0673587     0.013403105
       500.00002       288.65154       98849.630       14687.565       4.9520000     -0.20375000     0.087000000       341.21200       1.9206543     0.021907339
       505.00000       288.68538       98856.522       14603.472       2.6185000      -1.1777500     -0.49700000       341.25300       2.0795546     0.015878520
       510.00001       288.74372       98860.587       14590.820       4.4085000      -2.1690000      0.33925000       341.21600       2.0956428     0.014904291
       515.00002       288.81434       98864.666       14625.969       3.1510000      -1.8387500      0.32175000       341.55300       2.0545011     0.016344738
       521.00003       288.92167       98871.766       14763.304       2.2755000      -1.7287500      0.48775000       341.85900       1.9931758     0.018362103
       526.00000       288.93345       98873.660       14744.630       3.4320000      -1.4290000     -0.88375000       341.12300       2.0445053     0.013107780
       531.00002       288.96405       98875.674       14753.092       2.5390000      -1.8817500      0.74250000       342.06600       2.0417535     0.018657021
       536.00003       288.99431       98879.127       14761.238       4.1617500      -1.7612500     -0.33325000       340.92500       1.9042825     0.013601663
       541.00000       289.02425       98880.937       14769.537       4.4637500      -1.5200000       1.2007500       341.72200       2.0586189     0.014932138
       546.00002       289.05386       98880.271       14778.115       4.2850000     -0.96825000     -0.83350000       341.27500       2.0134665     0.012790068
       551.00003       289.08313       98880.232       14786.505       2.0947500     -0.10125000      0.56475000       341.99200       2.0338317     0.015551899
       556.00000       289.11208       98880.406       14794.768       2.6882500     0.087250000      0.53950000       342.08400       2.0325020     0.012698791
       561.00001       289.14070       98880.482       14802.954       2.6770000     -0.18850000      0.28800000       342.42000       2.0432722     0.013004233
       566.00003       289.16899       98880.306       14811.086       2.9222500      -1.7492500      0.38350000       341.97500       1.9255368     0.012384781
       571.00000       289.19696       98880.289       14819.104       4.4530000      -1.5232500     0.084500010       340.97800       2.0277103     0.010947377
       576.00001       289.22459       98880.145       14827.052       2.6092500      -1.3170000      0.48375000       341.66500       1.9466209     0.012775067
       581.00003       289.25189       98880.070       14834.901       3.6565000      -1.9872500     -0.30675000       341.85900       1.9742448     0.013102972
       586.00000       289.27887       98884.382       14841.993       4.0645000      -1.8147500     0.078500000       341.77500       1.9322663     0.014307427
       591.00001       289.30551       98881.019       14850.168       4.0372500      -1.5532500      0.36075000       342.16500       2.0174692     0.012175101
       596.00003       289.33183       98867.123       14859.864       3.2240000      -1.1660000      0.59475000       342.13800       1.9515986     0.013640588
       601.00000       289.35781       98863.352       14867.932       3.2620000      -1.6480000    -0.082750010       341.44400       1.9623057     0.012796520
