MIRICO/SHELL project - Processed LDS file generated on
Mon Jul 24 17:54:56 2017
Time stamp for record start
05/12/2017  12:01:15.0000
Nb of points in the record
         918
Beam position index
       7.0000000
Beam angle (degrees)
       19.274000
Open Path length (m)
       33.730000
****************** Temporal data record ************************
Elapsedtime_sec Temp_K Press_Pa Humidity_ppmv WindX_m/s WindY_m/s WindZ_m/s Speedofsound_m/s CH4vmr_ppmv CH4vmrerror_ppmv  
      0.00000000       287.82935       98875.758       14110.907       3.7845000     -0.75200000     -0.14550000       341.17500       2.1240099     0.038030661
       5.0000131       287.85989       98861.136       14074.330       3.4662500      -2.4325000      0.36975000       341.01600       2.0243227     0.018927500
       10.000026       287.85005       98853.967       14009.533       2.5397500      0.17175000      0.53150000       341.22500       2.1307797     0.030565045
       14.999999       287.85513       98843.317       13943.747       3.8175000      0.37675000    -0.071750000       341.03700       1.9750324     0.020736527
       20.000012       287.85647       98841.510       13890.814       4.5820000     -0.44500000     0.063250010       341.08700       1.9769189     0.017951396
       25.000025       287.84547       98847.063       13834.210       5.1532500      -2.6047500     -0.18375000       340.85900       1.8344188     0.024817392
       30.999993       287.78841       98867.139       13729.773       2.8185000      0.24950000     0.043500000       341.17200       1.8834171     0.020534573
       36.000006       287.83377       98878.563       13762.327       3.6177500      0.24925000      0.54950000       341.09800       1.9599416     0.018945471
       41.000019       287.85379       98883.081       13777.277       4.5025000      -2.4885000     -0.28800000       341.01800       1.8952249     0.022235428
       45.999992       287.90389       98875.400       13837.641       2.8082500     -0.39650000     -0.63550000       341.08900       1.8616359     0.030367905
       51.000005       287.91163       98874.500       13862.876       2.7967500      0.78600000      0.34875000       341.20800       1.8871560     0.017962799
       56.000018       287.85186       98876.197       13845.161       4.2895000      0.30975000     -0.31775000       340.81500       1.9574734     0.021227449
       61.000031       287.84318       98875.231       13857.679       4.9750000    -0.096750010      0.27950000       341.02100       2.0199170     0.019931409
       66.000004       287.84270       98879.094       13884.007       3.2737500      0.96750000      0.61050000       341.05000       2.0312166     0.019602673
       71.000017       287.84405       98876.730       13894.525       3.8147500     -0.91775010   -0.0017500000       341.01800       1.8448163     0.020515101
       76.000030       287.88994       98861.586       13926.515       5.7675000     -0.44550000      -1.0035000       341.01200       1.9498537     0.024360039
       81.000003       287.90880       98857.934       13931.253       3.1460000     -0.55600010      0.47700000       341.17100       1.9314295     0.022622702
       86.000016       287.88616       98857.700       13883.373       6.1565000     0.029500000      0.13425000       340.88100       1.9307505     0.022611145
       91.000029       287.89730       98859.031       13872.239       6.3777500      -1.1722500     -0.11900000       340.95400       1.8929840     0.018876588
       96.000002       287.92009       98868.932       13858.170       7.1860000       3.1857500     0.089250010       340.75600       1.9829941     0.016199822
       101.00002       287.95124       98876.834       13872.618       6.3377500     -0.19125000     -0.65075000       340.86600       2.0461564     0.022672492
       106.00003       288.03881       98886.125       13950.991       5.5395000       1.5250000      0.48450000       341.01500       1.8894270     0.020221724
       111.00000       288.06638       98891.953       13979.632       5.6000000      0.60100000    -0.018500000       340.81500       2.0174797     0.019427292
       116.00001       288.05735       98901.381       13990.980       5.3257500      -1.6632500    -0.072500010       340.81800       2.0174711     0.014120795
       122.00002       288.05425       98902.594       14011.798       6.2125000      -1.7382500    -0.078250010       340.76800       1.8684754     0.017968191
       127.00000       287.99255       98894.055       13981.114       5.2587500      -1.0827500      0.36050000       340.93800       1.7252783     0.025006173
       132.00001       287.98983       98888.712       14000.579       6.1242500      -2.6145000     -0.24500000       340.84400       1.9032132     0.024265855
       137.00002       288.05213       98880.036       14083.432       4.4342500      -2.9082500     -0.22175000       340.85800       1.9858426     0.015475326
       141.99999       288.05885       98872.019       14111.391       4.5752500      -2.0970000     -0.16075000       340.96400       1.9829698     0.023698984
       147.00001       288.04408       98862.996       14118.933       4.4200000     -0.50000000     0.099500010       341.15600       1.9392020     0.015993622
       152.00002       288.05399       98857.343       14141.573       4.4262500      0.44200000     -0.53575000       340.94100       1.9455097     0.019510251
       156.99999       288.02870       98848.579       14116.823       3.7447500     -0.40875000    -0.077500000       341.03300       1.9401228     0.020538627
       162.00001       288.04657       98848.173       14151.339       4.5380000      -1.2500000     -0.37925000       340.92300       2.0316774     0.027675915
       167.00002       288.13295       98856.776       14254.973       4.3462500      -1.0332500     0.088750000       340.85800       1.9102148     0.017773786
       171.99999       288.16950       98862.229       14311.020       3.9007500     -0.12375000      0.39575000       341.10700       1.9472441     0.023074539
       177.00001       288.19525       98870.600       14380.369       2.6397500      0.23275000      0.14500000       341.15000       2.0802185     0.027664706
       182.00002       288.21173       98878.576       14416.466       5.3685000      0.35725000    -0.090750000       340.88600       1.9670559     0.023141481
       186.99999       288.17413       98887.561       14377.687       4.8522500     -0.53500000     -0.65675000       341.10700       2.0430866     0.018937874
       192.00000       288.20152       98893.163       14413.205       4.2480000      0.22150000     -0.24225000       341.01700       1.9568042     0.019659170
       197.00002       288.28912       98901.780       14485.174       4.4870000      0.18950000     0.021000000       341.04500       1.9596149     0.017702010
       202.00003       288.31527       98902.236       14536.419       3.7335000     -0.97925010    -0.085250010       340.98700       1.9745122     0.026063636
       207.00000       288.37984       98894.060       14674.773       3.3290000      -1.4132500      0.37575000       341.19600       2.1167244     0.023259364
       213.00001       288.35540       98887.336       14680.489       3.9255000      -1.4637500   0.00075000000       341.04300       2.0545216     0.019362632
       218.00002       288.20660       98878.590       14566.302       4.2355000      -1.1332500     -0.19450000       341.12000       2.0949076     0.023529351
       223.00000       288.16906       98870.574       14531.568       4.2647500     -0.78375010      0.18250000       341.13600       2.1237584     0.026194527
       228.00001       288.13295       98862.912       14452.469       4.3712500     -0.67725000      0.17775000       340.99700       1.8866209     0.020441818
       233.00002       288.14131       98855.925       14427.251       3.9872500     -0.47725000     -0.31375000       340.93300       2.0295573     0.023748129
       238.00000       288.25274       98845.255       14496.904       2.8452500      -1.2905000      0.36825000       341.34700       2.0665327     0.024517299
       243.00001       288.27016       98842.174       14479.026       2.6815000     -0.59400000      0.46650000       341.28700       2.0387250     0.019972322
       248.00002       288.25841       98842.310       14417.044       2.4402500      -1.7052500      0.80625000       341.37800       2.0340546     0.020746591
       253.00000       288.25196       98846.331       14379.153       2.5325000      -1.2707500      0.51425000       341.41600       2.0703519     0.030214071
       258.00001       288.21193       98857.324       14314.601       2.0807500     -0.82600000      0.44975000       341.53300       2.1597156     0.026093855
       263.00002       288.18160       98864.301       14279.519       2.5972500      0.81325010     -0.34675000       341.05600       1.9787920     0.024309543
       267.99999       288.16812       98872.201       14277.211       2.3687500     -0.87050000      0.31075000       341.30800       1.7154655     0.026556368
       273.00001       288.13187       98880.163       14250.901       2.5447500      -1.0690000     0.048750000       341.18600       1.9125237     0.016274647
       278.00002       288.04695       98891.070       14210.892       3.6310000      -2.5000000     -0.35050000       340.87800       2.1500145     0.031420340
       282.99999       288.02961       98893.189       14190.867       3.0360000      0.47100000      0.18250000       341.53800       1.8994533     0.017088835
       288.00001       288.03117       98891.729       14157.757       3.4997500      -1.7647500      0.27750000       341.36300       1.9390994     0.022523810
       293.00002       288.05320       98890.529       14166.081       3.8902500     -0.30200000      0.50725000       341.39600       1.9491265     0.023979859
       299.00003       288.15742       98879.824       14232.784       3.9217500      -2.6187500      0.23475000       341.19100       1.9136722     0.016741967
       304.00000       288.16982       98877.633       14238.327       2.7317500     -0.39350000      0.54625000       341.50900       1.9568242     0.018471800
       309.00001       288.15707       98881.144       14249.730       3.5990000      -3.3120000      0.21750000       341.01500       1.9629407     0.023314584
       314.00003       288.14863       98879.245       14234.150       2.1395000     -0.57900010       1.0735000       341.62100       1.9652697     0.019199212
       319.00000       288.08773       98877.317       14160.781       2.0780000   -0.0080000000      0.65750000       341.45000       1.8138302     0.023410054
       324.00001       288.09493       98871.595       14147.806       2.2835000     -0.72075000    -0.068750000       341.24300       1.9449885     0.015116914
       329.00003       288.13713       98861.757       14157.596       1.9170000     -0.34375000      0.16050000       341.63600       1.9866788     0.021286528
       334.00000       288.17562       98854.824       14161.189       3.2712500      -1.6460000      0.45550000       341.74100       2.0211861     0.020339953
       339.00001       288.24881       98844.252       14184.792       5.4407500      -1.0960000      -1.6865000       341.23600       1.7735386     0.027744680
       344.00003       288.28028       98841.903       14193.711       3.9707500      -1.0437500      0.20525000       341.38100       1.8035316     0.024951324
       349.00000       288.28549       98844.671       14180.339       4.7297500      -3.0062500     -0.39675000       341.23600       2.0371781     0.019428002
       354.00001       288.33472       98845.607       14215.851       4.4052500      -1.6510000      -1.3480000       340.75400       2.0124244     0.014352561
       359.00002       288.38454       98848.792       14267.998       2.8620000      -1.8045000     -0.54975000       341.09900       1.8930533     0.028250441
       364.00000       288.44311       98853.658       14333.809       3.8550000      -1.0020000     -0.39250000       341.05200       1.9209001     0.022348468
       369.00001       288.56188       98858.735       14440.622       2.6255000      -2.1190000     0.078000000       341.39700       2.0586424     0.021399642
       374.00002       288.58543       98864.631       14518.688       4.1435000      -1.7600000     -0.31050000       341.21100       2.1729892     0.023762125
       379.00000       288.54778       98875.578       14586.457       3.4472500      -1.3400000      0.18800000       341.10700       1.9996922     0.026344266
       384.00001       288.55762       98879.825       14670.618       2.8107500      -2.6687500     -0.57425000       341.03200       2.0210612     0.039746476
       390.00002       288.54390       98881.086       14788.609       3.5507500      -1.6842500     -0.32225000       341.52100       2.0504917     0.017981317
       395.00003       288.55589       98881.994       14834.825       4.4562500      -1.8705000      -1.2650000       341.09100       1.9577801     0.021054296
       400.00000       288.61220       98880.399       14884.852       2.9547500     -0.74775000       1.3445000       341.36400       1.9466598     0.016385411
       405.00002       288.56941       98880.243       14815.073       3.8347500     -0.91600010      -1.3550000       340.94900       1.8899341     0.020853591
       410.00003       288.54916       98880.243       14770.378       4.7760000      -1.5552500    -0.031500000       341.05000       1.9968887     0.020359871
       415.00000       288.51496       98880.394       14713.651       4.4145000     -0.76225010      0.32050000       341.54200       1.9209545     0.018724314
       420.00002       288.49402       98880.465       14656.623       4.7052500      -2.0065000    -0.046000000       341.22600       1.9732237     0.023312151
       425.00003       288.48536       98880.564       14602.490       3.9375000      -2.8315000     -0.81475000       341.40000       1.8829355     0.019895981
       430.00000       288.49965       98880.892       14559.856       3.5460000      -1.0170000     -0.14975000       341.44000       1.9357233     0.016886038
       435.00001       288.49954       98878.759       14508.529       2.7890000      -1.9792500      0.27050000       341.48700       1.9755493     0.022356268
       440.00003       288.49427       98876.436       14435.480       6.7757500       1.5882500     -0.63750000       341.36700       1.9782092     0.014125728
       445.00000       288.53061       98862.716       14440.567       4.4927500      -1.6342500     0.029750000       341.52800       1.7734421     0.019710913
       450.00001       288.55088       98858.260       14452.296       5.4020000      -1.7885000     -0.48525000       341.04300       1.9534704     0.020737353
       455.00003       288.60036       98863.824       14524.730       4.7877500     -0.83375010      0.27500000       341.13400       1.8395680     0.020694704
       460.00000       288.61240       98860.991       14569.828       4.6727500      -1.2760000     -0.52675000       341.33400       1.9196243     0.019725575
       465.00001       288.56985       98858.421       14595.692       4.4305000      -3.0637500      0.14325000       341.31000       1.9110117     0.020141387
       470.00003       288.54994       98856.740       14627.876       4.3360000      -1.7455000     0.091000010       341.32200       1.9183233     0.020562462
       475.00000       288.53004       98852.601       14658.084       4.1292500      -1.4562500     -0.42600000       341.42800       2.1364202     0.023858520
       481.00001       288.48781       98837.350       14685.624       3.5567500     -0.81825010     0.024500000       340.85400       1.8851853     0.014533256
       486.00002       288.52035       98843.737       14755.821       4.2622500      0.10275000      0.39325000       341.34800       1.8782100     0.014307610
       490.99999       288.55206       98845.768       14761.559       4.5862500     -0.84175000     -0.25825000       341.44700       1.8884081     0.017064798
       496.00001       288.61113       98846.445       14704.107       4.3130000      0.11875000     0.097000000       340.89300       2.0971794     0.023877054
       501.00002       288.66161       98850.551       14683.206       4.6395000     -0.22825000     0.066750000       341.26600       1.8618462     0.020489033
       505.99999       288.69606       98857.333       14597.137       3.3000000     -0.35250000      0.39100000       341.59100       2.0184581     0.018617587
       511.00000       288.75686       98861.401       14594.011       4.5645000      -2.6952500     -0.26000000       341.18200       1.8350841     0.021461488
       516.00002       288.84812       98866.914       14702.877       2.7017500      -2.0185000     -0.15425000       341.49700       2.0009170     0.022956250
       521.00003       288.92167       98871.766       14763.304       2.5242500      -1.1050000      0.54050000       341.89900       1.8466779     0.021195038
       526.00000       288.93345       98873.660       14744.630       4.5282500      -2.5822500     0.086750000       341.40400       1.8974155     0.013200560
       531.00002       288.96405       98875.674       14753.092       3.6810000      -1.7522500    -0.042250000       341.15900       1.8398222     0.019520039
       536.00003       288.99431       98879.127       14761.238       4.3352500      -1.6850000     0.029000000       341.10600       1.9439666     0.013892396
       541.00000       289.02425       98880.937       14769.537       4.7032500      -1.9615000     -0.30800000       341.38000       2.0582287     0.019780216
       546.00002       289.05386       98880.271       14778.115       3.9032500     -0.86625000     -0.55125000       341.13900       1.9322144     0.019536355
       551.00003       289.08313       98880.232       14786.505       3.3855000      -1.1467500      0.20225000       341.79800       1.9610555     0.019866083
       556.00000       289.11208       98880.406       14794.768       2.3475000     -0.25950000      0.78800000       342.21500       2.1018692     0.026617939
       561.00001       289.14070       98880.482       14802.954       3.0775000      -1.1545000      0.35100000       342.28900       2.1904763     0.026970417
       566.00003       289.16899       98880.306       14811.086       2.8572500     -0.70625000      0.12150000       341.91900       2.0591908     0.025695597
       572.00000       289.20251       98880.282       14820.698       4.4252500      -1.9857500     -0.49700000       341.38400       1.8926111     0.013635051
       577.00001       289.23008       98880.132       14828.628       4.2587500      -2.2937500     -0.78350000       341.71200       1.9831998     0.019573239
       582.00002       289.25731       98880.051       14836.460       4.5512500      -2.1827500     -0.15100000       341.30600       1.9294860    0.0097413364
       586.99999       289.28422       98884.013       14843.589       3.2937500      -1.2685000      0.16775000       341.82300       2.0326893     0.031435858
       592.00001       289.31080       98879.892       14851.862       3.2607500      -2.2632500      0.18325000       342.20000       1.9922227     0.026725614
       597.00002       289.33705       98866.173       14861.514       2.5540000      -1.3122500      0.21300000       342.27800       1.9535983     0.026415419
       601.99999       289.36297       98862.890       14869.491       3.4917500      -1.7542500     -0.41750000       341.43800       1.8920133     0.014640217
