MIRICO/SHELL project - Processed LDS file generated on
Tue Jul 18 13:47:54 2017
Time stamp for record start
05/11/2017  15:22: 6.0000
Nb of points in the record
         511
Beam position index
       1.0000000
Beam angle (degrees)
      -18.435000
Open Path length (m)
       34.890000
****************** Temporal data record ************************
Elapsedtime_sec Temp_K Press_Pa Humidity_ppmv WindX_m/s WindY_m/s WindZ_m/s Speedofsound_m/s CH4vmr_ppmv CH4vmrerror_ppmv  
      0.00000000       292.70864       98561.325       13406.325      0.76900010       2.0482500    -0.020000000       344.27900       2.0020882     0.013908912
       5.0000131       292.75267       98557.668       13407.034       1.2850000       1.3747500     -0.30750000       344.88600       2.1422003     0.021503947
       9.9999860       292.81282       98559.015       13435.110       1.2100000       1.3595000     -0.36525000       344.01000       2.0700193     0.017840985
       14.999999       292.85478       98573.238       13486.746      0.54250000       1.5987500      0.23950000       344.14600       2.0221562     0.016399623
       20.000012       292.90580       98577.744       13524.061       2.1815000       2.1032500    -0.063500000       343.84400       2.0863279     0.018372677
       24.999985       293.01478       98580.361       13588.513       1.0770000       2.0692500    -0.087250000       344.36800       2.0633385     0.017539760
       29.999998       293.07220       98577.002       13636.550       2.1137500       2.3795000     -0.64375000       344.34600       2.1085972     0.022405841
       35.000011       293.10495       98555.379       13672.847      0.90475000       1.6167500      0.47150000       344.47100       2.0861362     0.018049149
       39.999984       293.11235       98552.010       13687.933       2.1017500       1.4040000    -0.060500000       345.09500       2.0746118     0.016903491
       44.999997       293.03762       98558.229       13659.460       2.0982500       1.7967500     0.072750000       344.23900       2.1346272     0.020815294
       50.000010       293.03996       98559.391       13682.661       1.4642500       2.9942500     -0.26675000       344.01600       2.0992090     0.018684276
       54.999983       293.05059       98577.085       13711.129       2.6470000       1.0787500     0.014750000       344.20900       2.1049383     0.019082160
       59.999996       293.09402       98579.328       13749.759       2.9105000       2.1475000      0.45675000       343.89500       2.1069288     0.018323969
       65.000010       293.23448       98555.311       13843.620       2.7725000       1.8557500      0.15750000       343.98200       1.9649207     0.014219439
       69.999982       293.32227       98551.982       13918.723       3.7085000       1.0090000      0.25125000       343.99300       2.1284413     0.021287720
       74.999996       293.42892       98557.879       14008.942       1.8620000       2.5090000      0.25875000       345.68900       2.1171511     0.032707569
       80.000009       293.47470       98559.126       14050.075       1.4905000       1.8907500     -0.23325000       344.36800       2.0854460     0.017552419
       84.999982       293.45565       98577.091       14089.091       3.6167500       3.2925000     -0.93425010       344.22100       2.0641439     0.016462249
       90.999989       293.45263       98578.587       14075.487       2.0790000       3.9047500     -0.96950010       343.90700       2.1061110     0.021993771
       96.000002       293.43052       98554.151       13998.779       2.7645000       3.1287500     -0.18650000       344.22800       2.1038777     0.020566042
       101.00002       293.38678       98551.988       13912.372       1.6232500       1.9717500     -0.93325010       344.29400       2.0759783     0.018187116
       105.99999       293.32337       98560.721       13768.956       1.7112500       2.8352500    -0.091750000       344.23000       1.9618467     0.014994236
       111.00000       293.28367       98559.695       13674.268       2.1767500       2.1600000      0.73825000       345.05200       2.0389066     0.016019577
       116.00001       293.23596       98566.851       13592.096       1.5602500       1.3322500      0.40300000       344.87400       2.1802409     0.031299672
       120.99999       293.17624       98567.348       13492.748       3.2950000       1.6235000      0.73275010       344.29500       2.0160017     0.016599393
       126.00000       293.07192       98547.741       13343.403       3.0432500       3.7517500     -0.29275000       343.17100       2.0844589     0.027754137
       131.00001       293.08715       98547.042       13324.451       3.0930000       2.9080000     -0.26425000       343.04800       2.1486151     0.028240434
       135.99999       293.16247       98566.687       13365.319       1.5475000       1.7590000      0.37075000       343.84300       2.1138610     0.018115338
       141.00000       293.20975       98567.158       13397.164      0.74875000      0.98475000      0.75900010       345.28900       2.0580575     0.016535562
       146.00001       293.38031       98562.168       13552.048       2.0342500       1.0265000     -0.18775000       343.34800       2.1095885     0.029103308
       150.99999       293.44628       98560.473       13637.703       1.8757500       2.9805000      0.42475000       343.68900       2.0252285     0.014764864
       156.00000       293.38743       98543.518       13638.777       2.6040000       2.6997500      -1.0097500       343.35100       2.1404252     0.027743095
       161.00001       293.40126       98541.792       13697.838       2.0327500       2.4660000     0.011500000       343.94600       2.0924610     0.019078249
       165.99998       293.42333       98561.406       13796.226       3.0897500       2.7265000     -0.41375000       343.83100       2.0789361     0.017645211
       171.00000       293.45705       98562.882       13876.064       3.1225000       1.4037500      0.14100000       344.48400       2.1406608     0.018391905
       176.00001       293.57122       98554.123       14019.421       2.1197500       3.2585000      0.30925000       344.14400       2.0635128     0.015920619
       181.99998       293.55905       98556.081       14034.067       3.5642500       1.6042500     -0.25675000       343.97100       2.0391747     0.015703622
       186.99999       293.48262       98553.313       13966.876       2.5470000       2.3660000     -0.49100000       344.25800       2.0788311     0.019010169
       192.00000       293.42018       98555.179       13909.957       1.2205000       4.5652500      0.49100000       344.61300       2.0678786     0.014703727
       196.99998       293.24770       98573.375       13735.770       4.2127500       4.8212500      0.50350000       344.36600       2.1116154     0.021525475
       201.99999       293.20318       98572.560       13685.430       3.2600000       2.2890000     -0.34175000       343.30000       2.0711947     0.017091626
       207.00000       293.23172       98553.185       13708.856       5.3767500       3.6325000      0.11950000       343.70000       1.9821404     0.015238015
       212.00002       293.25386       98553.630       13703.882       2.7605000       2.5475000     -0.93225000       343.60000       2.1150768     0.020087180
       216.99999       293.35232       98558.055       13751.971       4.3107500       3.1840000    -0.049000000       343.81100       2.0921458     0.019292643
       222.00000       293.36983       98560.331       13735.368       3.4102500       2.5255000     -0.76625000       344.73700       2.1315346     0.029968093
       227.00002       293.34560       98578.968       13667.760       2.5692500       2.0567500      0.37350000       344.34400       2.0417684     0.015224038
       231.99999       293.35567       98577.655       13640.825       3.5807500       1.8002500      0.74500010       344.33200       2.1111308     0.018345916
       237.00000       293.36629       98553.241       13594.751       1.1390000       2.7260000      0.45650000       344.21300       2.1205018     0.019133730
       242.00002       293.34032       98552.303       13586.729       2.7847500       1.3737500      0.48000000       344.57000       2.1141314     0.021650356
       246.99999       293.34914       98561.676       13641.245       2.3367500       2.3840000      0.41800000       344.38200       2.0313202     0.015696919
       252.00000       293.27489       98559.044       13631.857       2.1500000       1.9755000     -0.88950000       344.71700       2.0708223     0.020589892
       257.00001       293.06591       98562.471       13591.737       2.2665000      0.67550000       1.0422500       345.40900       2.0103687     0.015219492
       261.99999       292.99486       98561.519       13581.096       2.4770000       2.9800000      0.36175000       344.78800       1.9832494     0.015704771
       267.00000       292.93459       98541.759       13556.569       2.7565000       4.2195000     -0.75175010       344.06300       2.0852121     0.020774546
       273.00001       292.93496       98544.632       13538.212       3.3527500       3.2535000      0.11125000       344.47400       2.0705690     0.016660451
       277.99998       293.03265       98568.089       13539.181       2.9160000       2.6417500     -0.13400000       343.11100       2.0761937     0.018796030
       282.99999       293.10149       98567.701       13565.999       2.6687500       2.6940000     -0.44350000       343.05800       2.0414269     0.016309351
       288.00001       293.17781       98562.135       13588.910       3.0667500       1.8450000      0.59875010       343.99400       2.1372249     0.020213646
       292.99998       293.26587       98559.468       13634.483       2.9220000       2.2472500     -0.15900000       343.76100       2.0730190     0.015905295
       297.99999       293.39741       98543.638       13723.778       2.9637500      0.19675000      0.33150000       344.53600       2.1279695     0.017101262
       303.00001       293.45958       98541.096       13804.246       3.9780000      0.73525010   -0.0037500000       344.05800       2.1374700     0.020676451
       307.99998       293.51501       98551.380       13891.209       1.9372500       4.4207500     -0.58000000       343.36300       2.1693252     0.031406301
       312.99999       293.51813       98550.516       13954.677       3.5587500       3.2847500     -0.80575000       344.06300       2.1309306     0.021260588
       318.00001       293.48929       98542.264       14068.112       3.6900000       4.5905000     -0.64750000       344.09700       2.0455762     0.015005913
       322.99998       293.39405       98547.861       14038.578       2.3897500       3.4417500     -0.88375000       343.95500       2.1288056     0.021321764
       327.99999       293.21886       98561.306       13913.636       4.5770000       2.5132500    -0.021500000       344.03900       2.0560176     0.016624471
       333.00000       293.10882       98562.605       13822.848       3.1317500       4.6410000      0.13725000       343.43000       2.0755501     0.018482009
       338.00002       292.94217       98567.873       13655.814       4.5485000       2.7837500    -0.053250000       344.09800       2.1190753     0.021112292
       342.99999       292.87764       98566.464       13562.427       3.1802500       3.4920000     -0.29975000       343.79900       2.0443827     0.015791849
       348.00000       292.89712       98546.769       13502.498       3.5895000       4.4015000     -0.26750000       343.33500       2.0511268     0.017378866
       353.00002       292.88620       98549.224       13451.330       2.7495000       1.8605000     -0.36500000       343.82600       2.1513982     0.023970260
       358.99998       292.89431       98567.822       13394.909       3.2520000       3.3375000     -0.30775000       343.43900       2.0690460     0.020873269
       364.00000       292.88615       98557.616       13403.562       4.1500000       4.3847500      -1.0612500       343.59200       2.1429547     0.022417800
       369.00001       292.93230       98559.389       13448.917       1.4047500       3.9420000      0.35350000       344.11400       2.1586451     0.021880563
       373.99998       293.06145       98559.697       13578.479       2.8175000       2.5120000      0.14900000       344.28900       2.1550131     0.023906306
       379.00000       293.15069       98558.348       13674.340       4.1485000       3.7317500     -0.52550000       343.42700       2.1487025     0.030020501
       384.00001       293.26980       98578.702       13775.101       3.1610000       1.6932500     0.036500000       343.90400       1.9693152     0.014316030
       388.99998       293.36166       98580.803       13882.204       1.9707500       3.8785000      0.21325000       343.82700       2.1450801     0.021221102
       394.00000       293.42893       98571.821       13985.362       1.1910000       3.2427500     0.074500000       344.09500       2.1068004     0.016873187
       399.00001       293.44843       98541.223       14059.514       1.7072500       1.5652500      0.58725010       344.02700       2.0835893     0.015610021
       403.99998       293.49861       98543.181       14180.994       2.0532500       3.1670000      0.64600000       343.53300       2.1377507     0.023484541
       408.99999       293.55552       98547.859       14341.210       3.3470000       2.3397500     -0.63350000       343.34500       2.1118055     0.017131701
       414.00001       293.59954       98571.136       14499.582       2.3382500       2.5665000     -0.43725000       343.62600       2.0797858     0.015353705
       418.99998       293.61248       98580.378       14570.218       1.9302500       4.8830000     -0.13750000       343.69700       2.1772845     0.022195371
       423.99999       293.59988       98561.199       14600.224       3.4545000       3.9787500     -0.19925000       343.64800       2.0808649     0.015345570
       429.00001       293.56260       98557.727       14546.913       2.2857500       2.8285000      0.34100000       344.04000       2.1251350     0.020649823
       433.99998       293.50075       98559.170       14418.535       2.6242500       2.8680000     -0.17350000       343.64000       2.1360793     0.021068116
       438.99999       293.40894       98566.594       14187.187       3.9097500      0.95800010      0.35275000       344.13000       2.0872710     0.016491734
       444.00001       293.31680       98562.406       14005.794       2.4015000       2.8515000      0.76200000       344.06400       2.1020168     0.016531036
       450.00001       293.17749       98560.570       13729.463       3.1622500       3.3080000      0.52525000       343.77700       2.0780012     0.015557236
       454.99999       293.08420       98553.054       13597.948       3.2310000       3.2472500      0.28900000       343.77500       2.0959654     0.016464156
       460.00000       293.02610       98552.618       13480.376       3.0460000       2.0400000     0.057500000       343.97900       2.1128453     0.017993673
       465.00001       293.02344       98579.343       13391.027       2.2862500       1.4062500     -0.42150000       344.43000       2.1317829     0.020848318
       469.99999       292.99358       98580.057       13314.828       2.7892500     -0.32275000     -0.24175000       343.81800       2.0945549     0.019301673
       475.00000       292.96614       98550.294       13244.423       3.1782500      -1.0522500      0.86175010       344.04400       2.1896260     0.024851016
       480.00001       292.94623       98546.856       13209.384       4.1660000      -1.1007500      0.83825000       344.24500       2.1117675     0.018792779
       484.99998       292.93927       98550.565       13231.494       5.2037500     -0.17650000     -0.27300000       343.99700       1.9852126     0.015218849
       490.00000       292.89792       98548.008       13220.035       4.5767500      -1.4517500     -0.37150000       343.35400       2.1227494     0.019018392
       495.00001       292.86020       98564.038       13222.723       4.1195000     -0.39575000     -0.27475000       344.22200       2.1058430     0.020085754
       499.99998       292.79733       98569.409       13211.160       2.4717500      0.85475000     -0.49200000       344.58000       2.0732214     0.018286553
       505.00000       292.66462       98548.896       13147.710       3.4072500     -0.44475000      0.76425000       344.16100       2.0641361     0.016021718
       510.00001       292.57517       98546.474       13126.869       3.3732500      0.93325010     -0.13875000       343.23400       2.0606152     0.017124938
       514.99998       292.47072       98566.160       13108.646       4.2157500       1.8057500    -0.019750000       343.56700       2.1066474     0.017235827
       520.00000       292.42490       98567.621       13132.971       3.3855000      0.24125000     0.068000000       343.72400       2.1283136     0.021282290
       525.00001       292.45724       98559.691       13236.865       3.2765000       2.0237500    -0.087000000       344.00000       2.0749449     0.017794382
       529.99998       292.44707       98560.707       13282.889       4.9312500       1.6432500      -1.1842500       343.56600       2.0965515     0.018137287
       534.99999       292.44233       98554.650       13320.751       5.0455000      0.85475000      0.16425000       343.53200       2.1451502     0.021392432
       541.00000       292.45483       98553.531       13374.387       4.1012500       1.7312500     -0.62700000       343.50900       2.0560742     0.015906244
       546.00002       292.45651       98572.813       13383.192       3.9475000       2.3652500      0.15225000       343.53700       2.0253960     0.015287370
       550.99999       292.44666       98573.676       13404.535       3.6467500       1.0960000     -0.17525000       343.77800       2.0907879     0.016157693
       556.00000       292.47014       98553.752       13467.661       4.1270000       1.2410000     -0.18075000       343.57600       2.0798508     0.015606934
       561.00001       292.45269       98553.352       13485.319       3.3232500       1.5275000      -1.3152500       343.94100       2.0140816     0.016649270
       565.99999       292.38026       98562.276       13477.856       1.9100000     -0.41200000      0.74600010       344.10300       2.0242919     0.016842900
       571.00000       292.33077       98559.957       13450.912       3.8945000       1.6680000     -0.10150000       343.76900       2.0252477     0.015657873
       576.00001       292.28181       98562.150       13396.840       4.3777500       2.4095000      0.19475000       343.38700       2.0919997     0.016521772
       580.99999       292.23177       98562.030       13341.767       4.5062500       1.1657500      0.19900000       343.42300       2.0912583     0.016743342
       586.00000       292.18067       98543.809       13261.983       3.9445000       1.5917500   -0.0030000000       343.64700       2.1079608     0.017732607
       591.00001       292.13052       98542.016       13190.303       2.5742500      0.77750000     0.023250000       343.90100       2.0160566     0.014699515
       595.99999       292.06644       98556.157       13102.818       3.1687500      0.93225000     -0.40525000       344.01800       2.0689126     0.015589192
       601.00000       292.02993       98563.145       13047.355       2.1855000       1.8447500     -0.71350000       343.80000       1.9883992     0.017821348
