MIRICO/SHELL project - Processed LDS file generated on
Tue Jul 18 13:24:17 2017
Time stamp for record start
05/11/2017  15:22: 6.0000
Nb of points in the record
         511
Beam position index
       2.0000000
Beam angle (degrees)
      -8.6230000
Open Path length (m)
       64.850000
****************** Temporal data record ************************
Elapsedtime_sec Temp_K Press_Pa Humidity_ppmv WindX_m/s WindY_m/s WindZ_m/s Speedofsound_m/s CH4vmr_ppmv CH4vmrerror_ppmv  
      0.00000000       292.70864       98561.325       13406.325       1.1940000       1.6117500     -0.14800000       344.49700       1.8924743     0.010881130
       5.0000131       292.75267       98557.668       13407.034       1.9750000      0.81400000     0.031000000       344.13200       1.9157864     0.010741336
       9.9999860       292.81282       98559.015       13435.110      0.94150010       1.5495000    -0.062250000       344.44800       1.9098515    0.0099949254
       14.999999       292.85478       98573.238       13486.746      0.33900000       1.3735000      0.20925000       344.87300       1.9057010     0.010758431
       20.000012       292.90580       98577.744       13524.061      0.97100010       3.3062500     -0.35650000       344.75100       1.9262675     0.010257418
       24.999985       293.01478       98580.361       13588.513       1.8167500       2.0995000      0.34875000       345.00100       1.9821405     0.017882836
       29.999998       293.07220       98577.002       13636.550       2.0830000       1.9355000     -0.69825010       343.04300       2.0025316     0.012181836
       35.000011       293.10495       98555.379       13672.847      0.87550000       2.2850000    -0.032750000       344.86700       1.8743355     0.010264189
       39.999984       293.11235       98552.010       13687.933       1.7427500       2.0350000     -0.20850000       343.68100       1.9185704     0.010620493
       44.999997       293.03762       98558.229       13659.460      0.61050000       2.0575000      0.14500000       343.81300       1.9108662     0.010654280
       51.000005       293.04343       98559.922       13689.115       1.3167500       2.7377500      0.33250000       343.98600       1.9484905     0.010699682
       55.999978       293.05630       98578.239       13717.170       2.1092500       2.5395000     -0.12775000       344.18500       1.8812593     0.010205524
       60.999991       293.10717       98578.718       13760.019       2.6242500       2.0960000      0.25375000       343.94300       1.8680323     0.010751285
       66.000004       293.25303       98554.153       13859.058       3.1192500      0.94700000      0.48625000       344.51100       1.9677502     0.010761146
       71.000017       293.33834       98552.054       13933.116       3.6500000       1.2472500     -0.34300000       344.09400       1.9474466     0.011214596
       75.999990       293.44108       98557.918       14019.064       1.5737500       2.2215000     -0.22750000       343.51100       1.8842449     0.010105056
       81.000003       293.47935       98559.690       14055.452       1.2902500      0.97675010      0.50500000       345.09300       1.8822236     0.011692444
       86.000016       293.45640       98578.217       14090.914       2.2777500       1.9397500     -0.14800000       344.47900       1.9198023     0.011204115
       90.999989       293.45263       98578.587       14075.487       2.3660000       3.5602500     -0.19425000       343.98300       1.8998387     0.010967640
       96.000002       293.43052       98554.151       13998.779       3.1815000       3.4645000     -0.72700010       344.12500       1.9477030     0.012856381
       101.00002       293.38678       98551.988       13912.372      0.93275000       2.7547500       1.1535000       344.68600       1.9203106     0.011512924
       105.99999       293.32337       98560.721       13768.956       1.0985000       3.9850000     -0.30025000       343.88600       1.9299342     0.010955062
       111.00000       293.28367       98559.695       13674.268      0.34100000       2.2640000      0.85500000       344.94200       1.9985878     0.014179043
       116.00001       293.23596       98566.851       13592.096       2.9860000       2.4132500     -0.37500000       344.40300       1.9053311     0.011302206
       120.99999       293.17624       98567.348       13492.748       2.9240000       2.1572500      0.28575000       344.05600       1.9077806     0.011512809
       126.00000       293.07192       98547.741       13343.403       2.3840000       3.3730000     -0.42475000       343.08200       1.9402213     0.010457220
       131.00001       293.08715       98547.042       13324.451       2.9820000       2.4680000     -0.59850000       343.50200       1.9739085     0.010134079
       135.99999       293.16247       98566.687       13365.319       1.6572500       1.6272500      0.37100000       343.88700       2.0106655     0.020462758
       141.99999       293.22221       98566.650       13407.987       1.9557500      0.80575000      0.57575010       344.98000       1.9685138     0.012088401
       147.00001       293.39757       98562.023       13571.336       2.0925000       1.4787500     0.074250010       344.50500       1.9559702     0.011857625
       151.99998       293.45338       98559.842       13651.576       2.7872500       3.2672500     -0.54450010       343.45200       1.9767877     0.013517730
       156.99999       293.38921       98542.583       13649.093       3.1727500       2.1770000     -0.97325000       343.36300       1.9949030     0.011309508
       162.00001       293.40550       98542.332       13711.901       2.6797500       2.4167500     -0.20450000       343.94200       1.9944258     0.015240046
       166.99998       293.42904       98562.102       13812.185       2.8477500       2.7582500     -0.45250000       343.91600       1.9382136     0.012271570
       171.99999       293.46535       98562.576       13892.048       3.5365000      0.99925010     -0.29750000       344.42400       1.8966505     0.012439175
       177.00001       293.57419       98554.322       14027.844       3.7145000       1.2992500     0.095500010       344.60900       1.8997822    0.0099892007
       181.99998       293.55905       98556.081       14034.067       4.8222500       2.4010000     0.053500000       343.53200       1.8800076     0.013290734
       186.99999       293.48262       98553.313       13966.876       1.7057500       1.9730000      0.12025000       344.71400       1.9305239     0.010352350
       192.00000       293.42018       98555.179       13909.957       1.7340000       5.0502500    0.0015000000       343.59300       1.9423522     0.010732563
       196.99998       293.24770       98573.375       13735.770       4.4215000       3.9050000     -0.33500000       343.66300       1.9106221     0.010520497
       201.99999       293.20318       98572.560       13685.430       3.0850000       1.7972500     -0.50150000       343.23200       1.8740055     0.010999943
       207.00000       293.23172       98553.185       13708.856       4.8965000       2.5497500     -0.68450000       343.42400       1.9376909     0.011131602
       212.00002       293.25386       98553.630       13703.882       2.7797500       2.5605000      0.20625000       343.88400       1.9160927     0.011449509
       216.99999       293.35232       98558.055       13751.971       3.8645000       2.8605000    -0.069250000       344.02500       1.9124886     0.012723990
       222.00000       293.36983       98560.331       13735.368       2.1895000       2.3265000     -0.29800000       344.58700       2.0366753     0.015180587
       227.00002       293.34560       98578.968       13667.760       3.2330000       3.6750000     -0.56625000       344.01400       1.9022725     0.013042009
       232.99998       293.35768       98576.340       13635.952       2.8535000       2.9750000     -0.38950000       344.45000       1.8675886     0.015688448
       238.00000       293.36212       98552.543       13591.337       2.0842500       1.6677500       1.0227500       345.30000       1.9608452     0.012013039
       243.00001       293.33359       98552.880       13587.832      0.40875000       1.2195000      0.61200000       345.16000       1.9487499     0.012600400
       247.99998       293.33823       98561.248       13640.798       2.1895000       2.5172500      0.45625000       344.42000       1.9145611     0.010877491
       253.00000       293.25414       98558.371       13627.820       2.3137500       2.5480000      0.47650000       345.06000       1.8942479     0.010304495
       258.00001       293.04875       98562.592       13589.471       2.3232500      0.70650010     -0.37875000       345.56600       1.9543795     0.017202281
       262.99998       292.98508       98560.862       13579.188       2.3225000       3.0662500     0.071750000       345.24400       1.9320853     0.011396410
       267.99999       292.92963       98541.357       13552.667       4.6195000       3.7477500     -0.45400000       344.11500       1.9032430     0.011662125
       273.00001       292.93496       98544.632       13538.212       3.2620000       3.7427500     -0.13150000       344.59000       1.9285913     0.011357648
       277.99998       293.03265       98568.089       13539.181       2.9795000       2.6910000     -0.22350000       343.95100       1.9193189     0.011045196
       282.99999       293.10149       98567.701       13565.999       2.9730000       2.1057500     0.086250010       344.06000       1.9191739     0.010084881
       288.00001       293.17781       98562.135       13588.910       1.1687500       1.7485000      0.18200000       343.97900       1.9689013     0.010813095
       292.99998       293.26587       98559.468       13634.483       2.9112500       1.9742500     -0.17225000       343.79100       1.9450829     0.011135751
       297.99999       293.39741       98543.638       13723.778       4.0715000      0.93675010    -0.050000000       343.86500       1.9961353     0.017272219
       303.00001       293.45958       98541.096       13804.246       3.6577500    -0.014500000      0.98150000       344.22900       1.9705414     0.012587916
       307.99998       293.51501       98551.380       13891.209       1.4422500       3.8505000   -0.0085000000       343.54800       2.0147412     0.014365240
       312.99999       293.51813       98550.516       13954.677       3.0072500       3.8872500     -0.43000000       344.16800       1.9702648     0.012906693
       318.00001       293.48929       98542.264       14068.112       2.9217500       5.0940000      -1.0312500       343.97700       1.9512700     0.017220352
       324.00001       293.30792       98558.386       13969.801       1.4375000       3.2710000      0.55475000       344.16500       1.9301695     0.011031115
       328.99999       293.19674       98561.775       13897.295       4.3847500       4.5505000     -0.51325010       343.61100       1.9467300     0.011391614
       334.00000       293.02922       98565.460       13747.013       3.6625000       2.1510000      0.11450000       343.95600       1.9094648     0.010011241
       339.00001       292.92533       98567.984       13635.320       4.5755000       2.8090000      0.29425000       344.05900       1.9982795     0.014528330
       343.99998       292.87065       98565.593       13546.452       3.8100000       2.7180000     -0.17900000       343.58900       1.9607071     0.011346303
       349.00000       292.89393       98546.653       13491.043       3.5055000       3.6117500      0.33400000       343.52700       1.9720963     0.012058368
       354.00001       292.88553       98550.625       13442.925       1.7657500       2.0940000      0.84175000       344.06900       1.9484066     0.010769215
       358.99998       292.89431       98567.822       13394.909       4.3385000       3.9070000     0.017500000       343.79900       1.9425666     0.011307532
       364.00000       292.88615       98557.616       13403.562       4.0315000       3.9325000     -0.70925000       343.64500       1.9069130     0.010495758
       369.00001       292.93230       98559.389       13448.917       1.8460000       3.7590000      0.40400000       343.95400       2.0233778     0.016575693
       373.99998       293.06145       98559.697       13578.479       3.8317500       2.9915000     -0.51975000       343.86100       1.9480935     0.011556751
       379.00000       293.15069       98558.348       13674.340       3.8637500       2.9990000     0.086500000       343.43300       1.8678485     0.012373059
       384.00001       293.26980       98578.702       13775.101       2.6430000       2.6587500     -0.17300000       344.05200       1.9844113     0.016367354
       388.99998       293.36166       98580.803       13882.204       2.4247500       2.8667500      0.33100000       344.07500       1.9817931     0.011324432
       394.00000       293.42893       98571.821       13985.362       1.8632500       3.3912500      0.37150000       343.71500       1.9541847     0.010556896
       399.00001       293.44843       98541.223       14059.514       1.4165000       2.1457500      0.55950000       344.05200       1.9261915     0.010091497
       403.99998       293.49861       98543.181       14180.994       2.8175000       3.1397500     0.095750000       343.42600       1.9617973     0.010614688
       408.99999       293.55552       98547.859       14341.210       3.2880000       2.5590000     -0.13625000       343.22400       1.9556521     0.010782749
       415.00000       293.60415       98573.791       14518.500       3.1102500       2.6397500      0.24775000       343.47500       2.0008673     0.011288103
       420.00002       293.61204       98581.017       14577.145       1.6942500       4.6040000     -0.39575000       343.64400       1.9634615     0.010978535
       424.99999       293.59439       98560.112       14595.606       3.3922500       3.2475000      0.11425000       343.81400       1.9953526     0.014778073
       430.00000       293.55220       98557.622       14527.212       2.7722500       2.7417500     -0.39950000       343.83500       1.9482895     0.014900862
       435.00001       293.47293       98568.186       14319.650       2.3547500       3.6977500      0.50900000       343.56800       1.9721072     0.012542475
       439.99999       293.39159       98565.952       14152.300       2.8742500       2.6962500    0.0042500000       343.66600       1.9524986     0.011021703
       445.00000       293.26655       98559.487       13905.693       1.8650000       4.1632500      0.33250000       343.45700       1.9641515     0.011315482
       450.00001       293.17749       98560.570       13729.463       3.2282500       2.3335000      0.88650010       343.77800       1.9931820     0.011914755
       454.99999       293.08420       98553.054       13597.948       3.3892500       2.9272500     -0.47200000       344.08200       2.0010766     0.015590385
       460.00000       293.02610       98552.618       13480.376       2.7495000       2.8297500     -0.25900000       343.63300       1.9247145     0.011626176
       465.00001       293.02344       98579.343       13391.027       3.5295000       2.4555000     0.052250000       344.03100       1.9656603     0.016492831
       469.99999       292.99358       98580.057       13314.828       3.0125000     -0.48200000     0.093750010       343.97400       1.9053812     0.010830151
       475.00000       292.96614       98550.294       13244.423       3.0557500     -0.35875000     -0.13200000       344.07700       1.9478443     0.011483702
       480.00001       292.94623       98546.856       13209.384       4.0425000      0.32700000     -0.45125000       344.26300       1.9361643     0.010963010
       484.99998       292.93927       98550.565       13231.494       5.0515000      0.68075000     -0.32025000       343.82200       1.9810493     0.017586251
       490.00000       292.89792       98548.008       13220.035       4.5932500     -0.47675000      0.50750010       343.94300       1.9172136     0.010335348
       495.00001       292.86020       98564.038       13222.723       3.9015000     -0.37650000    -0.094750000       344.26500       1.9837379     0.013150669
       500.99998       292.78175       98569.581       13207.174       3.2305000      0.49025000      0.46025000       344.31600       1.9214808     0.011365486
       505.99999       292.64566       98547.803       13142.073       5.6032510     -0.10375000      0.60675000       343.79500       1.9762610     0.015682927
       511.00000       292.55890       98546.902       13124.897       2.8252500       1.3722500     0.054250000       343.31500       1.8895337     0.011795077
       516.00002       292.45860       98566.845       13111.035       4.1700000       1.7397500     -0.49400000       343.28200       1.9423520     0.010943629
       520.99999       292.42017       98567.325       13141.559       2.2600000      0.81325010      0.46075000       344.06100       1.9579055     0.010756849
       526.00000       292.45519       98559.901       13246.963       3.2867500      0.96775010     -0.66400000       343.68800       1.9279364     0.010067683
       531.00002       292.44506       98560.900       13290.756       3.5795000     0.071750000     -0.74400000       343.04300       1.9244275    0.0096717177
       535.99999       292.44441       98553.962       13330.629       3.8930000       1.6350000      0.94925000       343.78400       1.8897437    0.0099505811
       541.00000       292.45483       98553.531       13374.387       4.1555000       1.3352500     -0.26300000       343.52200       1.9570220     0.015933705
       546.00002       292.45651       98572.813       13383.192       2.4330000      0.92275010       1.0675000       343.86900       1.9612881    0.0095889067
       550.99999       292.44666       98573.676       13404.535       3.4927500       1.5702500      0.43250000       343.85700       1.9460170     0.010725707
       556.00000       292.47014       98553.752       13467.661       3.2027500       1.8675000      0.40800000       343.63800       1.9613211     0.010339277
       561.00001       292.45269       98553.352       13485.319       3.3940000      0.68750010      0.21775000       343.76700       1.9494153     0.014021060
       565.99999       292.38026       98562.276       13477.856       2.1305000      0.57250010      0.37925000       344.09900       1.9774141     0.015183178
       571.00000       292.33077       98559.957       13450.912       3.9635000       2.2980000      0.72875010       343.89200       1.9634183     0.010793080
       576.00001       292.28181       98562.150       13396.840       5.4140000       1.1492500     -0.16925000       343.39300       1.9220181     0.010100812
       580.99999       292.23177       98562.030       13341.767       4.0800000       1.1810000     -0.15225000       343.38000       1.9642178     0.011391136
       586.00000       292.18067       98543.809       13261.983       3.5927500       1.9255000     -0.10100000       343.68300       1.9180655     0.010237267
       592.00001       292.12050       98542.559       13175.894       3.2337500       1.0752500    -0.059750000       343.68500       1.9229781     0.010085635
       596.99998       292.05809       98557.561       13090.593       3.2122500      0.82725010      0.55150000       343.99300       1.9217084     0.010626054
       601.99999       292.02420       98564.532       13037.955       4.2762500       1.1877500      0.31725000       343.62000       1.9008815     0.010223526
