MIRICO/SHELL project - Processed LDS file generated on
Tue Jul 18 14:33:04 2017
Time stamp for record start
05/11/2017  15:22: 6.0000
Nb of points in the record
         511
Beam position index
       3.0000000
Beam angle (degrees)
     -0.91000000
Open Path length (m)
       44.550000
****************** Temporal data record ************************
Elapsedtime_sec Temp_K Press_Pa Humidity_ppmv WindX_m/s WindY_m/s WindZ_m/s Speedofsound_m/s CH4vmr_ppmv CH4vmrerror_ppmv  
      0.00000000       292.70864       98561.325       13406.325      0.70925000       1.3862500    -0.080500010       344.56500       2.0262011     0.017064561
       5.0000131       292.75267       98557.668       13407.034       2.2232500      0.90775010     0.098500010       344.30000       1.9699708     0.023384404
       10.999981       292.82482       98559.732       13442.456       1.2210000       2.1807500     -0.26050000       344.40500       2.0362745     0.018261182
       15.999994       292.86400       98574.435       13493.801       1.3447500       1.4967500      0.17600000       344.97300       2.0057088     0.013283169
       21.000007       292.91747       98578.200       13532.137      0.80325000       2.7645000    -0.083250000       345.03100       1.9654495     0.031734526
       25.999980       293.02823       98580.081       13599.020      0.83525000       1.4625000      0.23025000       344.81800       1.9889671     0.014507458
       30.999993       293.08074       98575.742       13644.804       1.7812500       2.1495000     -0.14525000       343.56600       2.0026696     0.021040680
       36.000006       293.10845       98554.206       13676.917      0.75850000       1.9755000     -0.38250000       343.46300       2.0040296     0.019664993
       40.999979       293.11079       98552.085       13689.369       1.5132500       1.7292500     0.018000000       344.09600       2.0094467     0.014542971
       45.999992       293.03609       98558.263       13662.894       2.1192500       1.6520000      0.23825000       344.60400       2.0206639     0.028226675
       51.000005       293.04343       98559.922       13689.115       1.0340000       2.2280000     0.036500000       344.21200       2.0425877     0.020269055
       55.999978       293.05630       98578.239       13717.170       1.9542500       1.4910000     -0.36850000       344.27500       2.0061797     0.023005499
       60.999991       293.10717       98578.718       13760.019       2.4592500       1.5022500     -0.46600000       344.01700       2.0194216     0.021136209
       66.000004       293.25303       98554.153       13859.058       2.0192500      0.55425000      0.45950000       344.93200       2.0519442     0.017809720
       71.000017       293.33834       98552.054       13933.116       3.3227500      0.90175000     -0.26550000       344.04000       2.0164647     0.013933097
       75.999990       293.44108       98557.918       14019.064       1.2650000       2.4190000     -0.28850000       343.60800       1.9871808     0.015849482
       81.000003       293.47935       98559.690       14055.452       1.1980000       1.5175000      0.72575000       345.18300       2.0119230     0.015942601
       86.000016       293.45640       98578.217       14090.914       1.9022500      0.85625000      0.80825000       345.12500       2.0001431     0.029508948
       90.999989       293.45263       98578.587       14075.487       1.8595000       3.3362500     0.097750010       344.00800       2.0179381     0.019823177
       96.000002       293.43052       98554.151       13998.779       1.9015000       3.4915000     -0.11300000       344.79800       2.0226742     0.022066325
       102.00001       293.37653       98552.321       13892.291       1.1510000       1.8670000      0.46525000       344.84900       2.0028157     0.017551191
       106.99998       293.31543       98560.515       13749.261       1.4185000       3.4990000      0.59125000       344.80500       1.9815909     0.018647984
       112.00000       293.27573       98559.492       13656.465       1.9460000       3.5742500      0.65975000       344.80800       1.9830366     0.019039351
       117.00001       293.22402       98567.345       13572.128       2.7425000       1.3077500      0.34750000       344.60400       2.0132829     0.017479777
       121.99998       293.16429       98566.856       13473.025       2.6550000       3.0377500      0.19350000       343.76300       2.0222592     0.029481114
       127.00000       293.07096       98546.995       13335.142       2.3847500       2.7262500     -0.34775000       343.08800       2.0274763     0.015114525
       132.00001       293.09622       98547.813       13327.362       2.4112500       2.2407500      0.45625000       344.38300       2.0146152     0.015083851
       136.99998       293.16993       98567.182       13368.726       1.8517500       1.9330000    -0.026500000       344.30700       1.9879664     0.018952959
       141.99999       293.22221       98566.650       13407.987       1.2882500       1.5115000     -0.39025000       344.83500       1.9927894     0.013755680
       147.00001       293.39757       98562.023       13571.336       3.2240000      0.70175000     0.083000000       344.08800       2.0557502     0.017819439
       151.99998       293.45338       98559.842       13651.576       2.7915000       1.9480000     -0.32050000       343.44600       2.0814004     0.026077774
       156.99999       293.38921       98542.583       13649.093       2.7960000       2.1427500     -0.74025010       343.37700       2.0268521     0.028062912
       162.00001       293.40550       98542.332       13711.901       2.6242500       2.6165000     -0.22650000       343.76200       2.0327473     0.030591079
       166.99998       293.42904       98562.102       13812.185       4.0915000       2.1837500     -0.26550000       344.02200       1.9962037     0.015245739
       171.99999       293.46535       98562.576       13892.048       3.4180000       1.5165000     -0.12875000       345.20200       2.0001947     0.026752972
       177.00001       293.57419       98554.322       14027.844       3.7522500       2.2687500     -0.16050000       343.56300       2.0518072     0.026249469
       181.99998       293.55905       98556.081       14034.067       4.3705000       1.9777500     -0.81950000       342.93000       2.0505430     0.017292973
       186.99999       293.48262       98553.313       13966.876       1.5197500       1.8057500      0.26500000       344.84100       2.0408656     0.028830084
       193.00000       293.40477       98555.997       13894.868       1.7352500       3.9525000     -0.31000000       343.93800       2.0227578     0.018013585
       198.00001       293.23486       98573.802       13722.219       4.7737500       3.4057500     -0.72975000       343.46100       2.0568068     0.015753953
       202.99999       293.20018       98571.512       13680.571       2.4380000       1.8652500     -0.35150000       343.34400       2.0331850     0.014846669
       208.00000       293.23418       98552.881       13706.957       4.5680000       2.5745000     -0.15775000       343.35200       2.0406104     0.015401545
       213.00001       293.26123       98554.309       13704.241       3.3230000       3.2407500     -0.91700010       344.03100       2.0218660     0.015749022
       217.99998       293.35782       98558.300       13750.685       3.0767500       2.6295000     -0.22375000       343.59600       2.0843884     0.018173815
       223.00000       293.37034       98561.101       13728.999       2.2425000       2.4355000      0.10575000       344.22600       2.0482834     0.018013526
       228.00001       293.34761       98579.406       13662.030       3.1877500       3.0797500      0.36575000       344.34800       2.0618175     0.023430870
       232.99998       293.35768       98576.340       13635.952       2.7870000       1.3967500     -0.59650000       344.71400       2.0338147     0.014654849
       238.00000       293.36212       98552.543       13591.337       1.5402500      0.42550000       1.2247500       345.85800       2.0303262     0.015519232
       243.00001       293.33359       98552.880       13587.832       1.5555000       1.5872500      0.90650000       345.50400       2.0067369     0.016779831
       247.99998       293.33823       98561.248       13640.798       2.5037500       2.8147500      0.75475000       344.87100       2.0185106     0.014832818
       253.00000       293.25414       98558.371       13627.820       1.7177500       3.0767500    -0.095250000       344.83800       2.0159511     0.016899334
       258.00001       293.04875       98562.592       13589.471      0.72900000       1.5422500      0.10125000       345.96100       1.9986169     0.020057401
       262.99998       292.98508       98560.862       13579.188       2.4182500       2.2580000      0.60900000       344.55800       2.0062276     0.015098446
       267.99999       292.92963       98541.357       13552.667       4.0952500       2.9035000     -0.82475010       343.84800       1.9930479     0.016270309
       273.00001       292.93496       98544.632       13538.212       2.2540000       3.2382500     -0.47100000       344.73300       1.9947728     0.014853398
       277.99998       293.03265       98568.089       13539.181       2.4145000       3.7322500    -0.095500010       344.00500       1.9981766     0.014550946
       283.99999       293.11621       98562.489       13566.723       3.1087500       2.7242500     -0.53575000       343.09100       1.9975985     0.017259440
       289.00000       293.19444       98561.799       13596.433       1.7392500       1.9042500      0.41775000       344.22500       2.0485634     0.015587816
       294.00001       293.32993       98549.211       13663.669       2.3725000       3.3040000     -0.16450000       343.81700       2.0258020     0.017955439
       298.99999       293.41181       98542.736       13739.397       4.6550000       1.6705000      0.69600000       344.04100       2.0119655     0.015303950
       304.00000       293.46906       98541.178       13821.050       5.7402500       1.4825000      0.60250000       344.03500       2.0498302     0.017705611
       309.00001       293.51867       98551.410       13904.434       1.0657500       4.5807500     -0.77800010       343.21600       2.0199562     0.017914036
       313.99999       293.51421       98550.038       13966.557       2.3992500       3.9275000    -0.093000000       344.08300       2.0315745     0.015832262
       319.00000       293.47424       98542.980       14067.804       3.4262500       3.1902500      0.10500000       344.30000       2.0768867     0.016133449
       324.00001       293.30792       98558.386       13969.801       2.3747500       3.4660000     0.020000000       343.99800       2.0695901     0.017996551
       328.99999       293.19674       98561.775       13897.295       4.9872500       3.1140000       1.8137500       344.09300       1.9979391     0.014541903
       334.00000       293.02922       98565.460       13747.013       3.7442500       2.8572500      0.80700000       343.79300       1.9920459     0.013650495
       339.00001       292.92533       98567.984       13635.320       3.1597500       4.1325000      0.61350010       343.75200       2.0401209     0.015859580
       343.99998       292.87065       98565.593       13546.452       1.6325000       3.2252500      0.80975000       343.85800       2.0829243     0.016450697
       349.00000       292.89393       98546.653       13491.043       3.6300000       3.9892500     -0.30450000       343.32600       2.0486939     0.017762432
       354.00001       292.88553       98550.625       13442.925       2.1487500       3.4220000     0.094750000       344.02400       2.0064217     0.015304265
       358.99998       292.89431       98567.822       13394.909       3.2095000       4.0965000     -0.45275000       343.39500       2.0636314     0.018412784
       364.00000       292.88615       98557.616       13403.562       3.6137500       4.7360000     -0.54650000       343.69000       2.0513518     0.014930992
       369.00001       292.93230       98559.389       13448.917       3.7490000       2.7842500      0.41775000       343.95200       2.0180881     0.015056130
       374.99998       293.07930       98559.133       13597.644       3.4682500       2.8015000    -0.093000000       343.98100       2.0401905     0.014559187
       379.99999       293.16854       98558.520       13693.522       3.2230000       2.3705000      0.73750000       343.92200       2.0434710     0.013780860
       385.00000       293.29014       98580.009       13796.829       1.8927500       2.2077500     0.087000000       344.13200       2.0958112     0.018136226
       390.00002       293.37708       98579.893       13903.157       3.2705000       2.4665000     -0.57050000       344.14700       2.0638389     0.015361769
       394.99999       293.40855       98545.948       13976.115       2.0862500       3.2600000      0.26800000       343.88000       2.0648997     0.015483956
       400.00000       293.45843       98540.916       14082.273       4.5087500       2.0557500      0.34300000       343.76700       2.0830854     0.016360772
       405.00002       293.52342       98547.117       14246.161       3.4457500       3.4735000     -0.10550000       343.31900       2.0559789     0.018009755
       409.99999       293.56230       98548.546       14363.511       3.7192500       2.4955000    -0.019000000       343.47600       2.0731809     0.015762191
       415.00000       293.60415       98573.791       14518.500       2.7427500       2.5545000     -0.21400000       343.64100       2.0663936     0.016138919
       420.00002       293.61204       98581.017       14577.145       1.5310000       4.0922500     -0.54850000       343.62600       2.0159023     0.015682570
       424.99999       293.59439       98560.112       14595.606       2.3797500       3.7795000     -0.96300010       343.80600       2.0169707     0.014953422
       430.00000       293.55220       98557.622       14527.212       3.5875000       3.0917500     0.078750010       343.73300       2.0656811     0.016211600
       435.00001       293.47293       98568.186       14319.650       3.3550000       3.7370000     -0.51225000       343.43800       2.0416777     0.015848947
       439.99999       293.39159       98565.952       14152.300       4.0290000       2.7300000     -0.39125000       343.79700       2.0613166     0.016209064
       445.00000       293.26655       98559.487       13905.693       3.1062500       3.1265000     -0.18150000       343.65100       2.0302060     0.016867441
       450.00001       293.17749       98560.570       13729.463       3.1865000       2.1207500      0.41875000       343.97900       2.0732669     0.016815889
       454.99999       293.08420       98553.054       13597.948       2.3855000       2.3945000     -0.40725000       344.21200       2.0484916     0.014998985
       460.00000       293.02610       98552.618       13480.376       2.8932500       2.7640000     -0.29175000       343.84800       2.0593994     0.017289339
       466.00001       293.01747       98580.372       13374.457       2.8900000       1.9350000      -1.5492500       343.73300       2.0608565     0.017627533
       470.99998       292.98760       98578.870       13301.580       2.8127500     -0.66775010      0.39825000       344.30400       2.0150499     0.016963373
       475.99999       292.96216       98549.114       13235.344       4.1825000      0.31400000      0.32000000       344.46300       2.0543812     0.017400296
       481.00001       292.94225       98546.906       13205.480       3.9315000     -0.80550000    -0.064750000       344.41300       2.0504816     0.022913393
       485.99998       292.93202       98549.738       13229.348       3.0865000       1.1020000     -0.19525000       344.33800       2.0375946     0.015773857
       490.99999       292.88812       98547.970       13217.523       5.1110000      0.33375000     -0.16675000       343.83500       2.0115692     0.015311859
       496.00001       292.84963       98565.713       13221.526       3.7222500      0.52625000    0.0050000000       344.27800       2.0134859     0.014672877
       500.99998       292.78175       98569.581       13207.174       5.6227500      0.20850000     -0.30875000       344.26600       2.0049565     0.014932636
       505.99999       292.64566       98547.803       13142.073       5.8502500      0.28600000      0.34450000       343.96300       2.0414236     0.016523080
       511.00000       292.55890       98546.902       13124.897       1.6142500       1.5787500      0.53500000       344.21500       2.0365828     0.015699781
       516.00002       292.45860       98566.845       13111.035       3.0447500       1.7782500    -0.015750000       343.68100       2.0884638     0.017583548
       520.99999       292.42017       98567.325       13141.559       2.5677500       1.2590000      0.18400000       343.90900       2.0706488     0.016827644
       526.00000       292.45519       98559.901       13246.963       3.2905000       1.4182500      0.35125000       344.02000       2.0716183     0.016935071
       531.00002       292.44506       98560.900       13290.756       4.5275000       2.6275000      -1.3017500       343.29900       2.0384805     0.014141318
       535.99999       292.44441       98553.962       13330.629       4.1915000      0.84450010      0.42950000       343.74200       2.0532748     0.014798478
       541.00000       292.45483       98553.531       13374.387       4.3560000       2.2162500    -0.027500000       343.60300       2.0638069     0.014610998
       546.00002       292.45651       98572.813       13383.192       3.2172500      0.60950010     -0.24825000       343.56100       2.0248580     0.012790236
       551.99998       292.44467       98572.940       13409.587       4.2745000      0.71050010      0.36725000       343.82400       2.0571471     0.016137529
       557.00000       292.46861       98553.278       13472.923       4.1227500      0.26075000   -0.0050000000       343.70700       2.0151479     0.013840654
       562.00001       292.44625       98553.862       13486.251       4.1205000       1.2782500     -0.46075000       343.73600       2.0073105     0.015605686
       566.99998       292.37036       98561.910       13474.048       3.2462500      0.71425000    -0.066750000       343.89300       2.0483985     0.015492573
       572.00000       292.32088       98559.346       13443.160       3.0640000       1.7130000      0.27375000       344.07700       2.0184890     0.012929210
       577.00001       292.27184       98562.435       13386.751       3.9117500      0.26025000      0.25125000       343.94700       2.0366601     0.014017586
       581.99998       292.22170       98561.542       13329.369       3.7290000       1.8710000     -0.93050000       343.42000       2.0364251     0.012983693
       586.99999       292.17063       98542.850       13247.696       3.3767500       1.7595000     0.039750000       343.62900       2.0082995     0.014815652
       592.00001       292.12050       98542.559       13175.894       3.3185000       1.2987500      0.10575000       343.76200       2.0400146     0.015075560
       596.99998       292.05809       98557.561       13090.593       2.6185000      0.89800010     -0.17625000       344.02900       2.0367673     0.014971334
       601.99999       292.02420       98564.532       13037.955       4.1970000       2.4287500     0.091250000       343.67500       2.0254288     0.013800958
