MIRICO/SHELL project - Processed LDS file generated on
Tue Jul 18 23:18:11 2017
Time stamp for record start
05/11/2017  15:22: 7.0000
Nb of points in the record
         511
Beam position index
       4.0000000
Beam angle (degrees)
    -0.033000000
Open Path length (m)
       98.010000
****************** Temporal data record ************************
Elapsedtime_sec Temp_K Press_Pa Humidity_ppmv WindX_m/s WindY_m/s WindZ_m/s Speedofsound_m/s CH4vmr_ppmv CH4vmrerror_ppmv  
      0.00000000       292.71670       98561.948       13406.673      0.85425000       1.4087500      0.18975000       344.42300       1.8897915     0.010121226
       5.0000131       292.76473       98557.638       13411.500       1.9617500       1.3000000     -0.12600000       343.73100       1.8924943    0.0089142756
       9.9999860       292.82482       98559.732       13442.456       1.2517500       1.8665000     -0.20025000       343.59100       1.9101910    0.0096915255
       14.999999       292.86400       98574.435       13493.801      0.98350010      0.65900000      0.41575000       344.78200       1.9171677    0.0091066114
       20.000012       292.91747       98578.200       13532.137       2.0840000       3.0497500     -0.38250000       344.22900       1.8839084    0.0084478750
       24.999985       293.02823       98580.081       13599.020      0.90525010       2.0412500     -0.10475000       344.84000       1.9213202    0.0089860441
       29.999998       293.08074       98575.742       13644.804       2.0252500       2.6937500     -0.39550000       343.09100       1.9078284    0.0089345316
       35.000011       293.10845       98554.206       13676.917       1.0287500       2.3792500     -0.16425000       343.51900       1.9208563     0.010043859
       39.999984       293.11079       98552.085       13689.369       1.0720000       1.6662500     0.021000000       344.04400       1.8959375    0.0090997532
       44.999997       293.03609       98558.263       13662.894       1.0085000       1.5287500    -0.081500000       344.42300       1.9391617     0.010357956
       50.000010       293.04343       98559.922       13689.115       1.7087500       1.7235000      0.93225000       344.55800       1.9093452    0.0085994038
       54.999983       293.05630       98578.239       13717.170       1.8007500      0.83225010      0.26550000       344.25700       1.8833736    0.0091805293
       60.999991       293.12180       98577.755       13771.126       2.3725000       1.2575000     -0.11775000       343.93400       1.9226139    0.0089595500
       66.000004       293.27108       98553.241       13874.288       1.9302500     0.089000000      0.60775010       345.27600       1.9013369     0.010063961
       71.000017       293.35392       98552.372       13947.297       3.5487500      0.25325000      0.40600000       344.70500       1.8765140    0.0091909689
       75.999990       293.45174       98558.063       14028.239       2.5437500      0.93300000    -0.041000000       344.20600       1.8448177     0.010078110
       81.000003       293.48249       98560.360       14059.877       1.6592500      0.91025010      0.50250000       345.69500       1.8914145    0.0092896551
       86.000016       293.45665       98578.992       14091.101       2.8807500       2.8520000     -0.58100000       344.43500       1.8730800    0.0089712103
       90.999989       293.45037       98577.609       14067.496       2.1682500       3.6727500     -0.13600000       343.91400       1.8891369    0.0095893947
       96.000002       293.42277       98553.208       13983.373       2.9505000       2.8220000     -0.34400000       344.23500       1.8630168    0.0097635547
       101.00002       293.37653       98552.321       13892.291      0.66950010       1.6992500      0.89725010       345.35900       1.8992098    0.0093632637
       105.99999       293.31543       98560.515       13749.261      0.77800010       4.2825000      0.29625000       343.38700       1.9422301    0.0099168798
       111.00000       293.27573       98559.492       13656.465       2.7832500       2.2970000     -0.37000000       344.71100       1.8995811    0.0094854920
       116.00001       293.22402       98567.345       13572.128       2.1695000       2.0967500    -0.051750000       343.93900       1.8770550    0.0096244978
       120.99999       293.16429       98566.856       13473.025       3.1887500       2.5465000     0.094250000       343.99000       1.9166378    0.0099292448
       126.00000       293.07096       98546.995       13335.142       2.2552500       2.7005000      0.10775000       343.13500       1.9139998    0.0087359098
       131.00001       293.09622       98547.813       13327.362       3.2597500       2.4235000    -0.085000000       343.12400       1.8528572     0.011492932
       135.99999       293.16993       98567.182       13368.726       1.6102500       2.6522500     -0.10875000       344.10600       1.9231772    0.0098695216
       141.00000       293.22221       98566.650       13407.987       3.7130000       2.0607500     -0.27100000       343.73300       1.9257957    0.0092975623
       146.00001       293.39757       98562.023       13571.336       2.4762500      0.62150000     -0.35800000       343.33900       1.8963346    0.0091914371
       152.00002       293.45844       98559.114       13664.354       2.0230000       2.5190000     -0.27050000       343.25400       1.9726279    0.0095681520
       156.99999       293.39149       98541.943       13660.155       2.3412500       1.7542500      0.11400000       343.36300       1.9231996    0.0090075579
       162.00001       293.41024       98543.166       13726.717       2.6322500       1.8945000     -0.26725000       343.69200       1.9556449     0.010677921
       167.00002       293.43527       98562.598       13828.148       2.7267500       2.9330000     -0.31000000       344.38800       1.9094428    0.0096215128
       171.99999       293.47417       98562.069       13908.040       2.5717500       2.4870000     -0.88575010       344.74700       1.9027273    0.0088413357
       177.00001       293.57517       98554.571       14033.877       4.2282500       2.4380000     -0.72275000       343.61500       1.9313698     0.010113445
       182.00002       293.55002       98556.587       14028.131       3.8827500       2.2107500     -0.53550000       343.06000       1.9317700    0.0090586227
       186.99999       293.47208       98553.389       13957.972       3.6542500       1.7882500     -0.95275000       343.58100       1.9030482    0.0098435711
       192.00000       293.40477       98555.997       13894.868       2.5770000       3.9772500     -0.76350000       343.79900       1.8882470    0.0088828577
       197.00002       293.23486       98573.802       13722.219       1.6770000       3.5800000      0.66925000       343.77200       1.9050464    0.0088298562
       201.99999       293.20018       98571.512       13680.571       2.2820000       2.0265000      0.11775000       343.35800       1.9317529    0.0090946051
       207.00000       293.23418       98552.881       13706.957       4.0482500       2.1550000     -0.21450000       343.39800       1.9188854    0.0095291642
       212.00002       293.26123       98554.309       13704.241       3.7277500       1.9402500     -0.25000000       343.89400       1.8629748     0.011322155
       216.99999       293.35782       98558.300       13750.685       3.2102500       1.8300000      0.64450000       344.17900       1.9090795    0.0092813204
       222.00000       293.37034       98561.101       13728.999       2.3297500       1.6607500    -0.034000000       344.28500       1.9143891    0.0096005511
       227.00002       293.34761       98579.406       13662.030       2.7620000       1.9355000     -0.10050000       344.86000       1.8807548    0.0095891024
       231.99999       293.35768       98576.340       13635.952       2.9117500       2.4765000      0.17475000       344.84500       1.9042298    0.0094461410
       237.00000       293.36212       98552.543       13591.337       1.2745000      0.79350010      0.78600000       345.71200       1.8733376     0.010326597
       243.00001       293.37006       98562.669       13638.329       2.6935000       2.2955000     -0.21900000       344.03600       1.9212471     0.010394447
       248.00002       293.32535       98560.770       13639.639       2.4047500       2.8902500     -0.10450000       344.85700       1.8893769    0.0093441383
       253.00000       293.23142       98557.649       13623.056       1.8585000       2.1267500     -0.13325000       345.25100       1.9208967     0.010149155
       258.00001       293.03307       98562.557       13587.271       1.9990000       1.0977500      0.57350000       345.47400       1.8820304    0.0092624459
       263.00002       292.97677       98560.049       13577.359       2.6062500       2.5297500     -0.44500000       344.57100       1.8992574    0.0095388724
       267.99999       292.92668       98541.308       13549.103       3.7757500       1.7045000     0.091500010       344.36900       1.9325508    0.0097642973
       273.00001       292.98635       98563.808       13528.324       2.2492500       2.1385000     -0.16425000       344.70300       1.8585434     0.010529567
       278.00002       293.04545       98568.521       13543.365       2.0297500       3.0640000     -0.24400000       343.36600       1.9135077    0.0098816373
       282.99999       293.11621       98562.489       13566.723       3.3985000       2.5012500    -0.089250010       343.16600       1.9107396    0.0093256973
       288.00001       293.19444       98561.799       13596.433       2.4640000       2.4517500     -0.35175000       343.52000       1.9046213    0.0091464536
       293.00002       293.32993       98549.211       13663.669       3.0457500       3.3655000     0.033750000       343.31000       1.9205098    0.0094143868
       297.99999       293.41181       98542.736       13739.397       4.8227500      0.73425000      0.58150010       344.34800       1.8857660    0.0091528123
       303.00001       293.46906       98541.178       13821.050       5.1282500       1.1282500       1.0585000       343.78800       1.9169279    0.0095522052
       308.00002       293.51867       98551.410       13904.434      0.90875010       4.1185000     0.097750010       343.46300       1.9176687    0.0088178767
       312.99999       293.51421       98550.038       13966.557       3.2135000       2.4170000      0.39575000       344.14000       1.8776601    0.0089864199
       318.00001       293.47424       98542.980       14067.804       3.3412500       3.7717500      0.41975000       344.18500       1.9032754     0.010527633
       323.00002       293.30792       98558.386       13969.801       2.0945000       3.9952500     -0.17825000       343.80700       1.9094618    0.0099129641
       327.99999       293.19674       98561.775       13897.295       4.1987500       4.9797500     -0.52350000       343.67400       1.9097645    0.0097970284
       334.00000       293.00451       98566.358       13722.821       4.7652500       4.9572500    -0.045250000       343.42600       1.9135610    0.0093049298
       339.00001       292.91045       98567.899       13615.739       4.6000000       2.5587500     -0.45050000       343.83200       1.9029732    0.0089992443
       343.99998       292.90972       98548.937       13540.545       3.4092500       2.8135000     -0.20475000       343.47800       1.8944654    0.0092832986
       349.00000       292.89124       98546.841       13480.200       3.6450000       2.4387500     0.029500000       343.62900       1.9378418     0.010678096
       354.00001       292.88613       98566.215       13411.299       2.6240000       3.5600000     0.051500000       344.04300       1.8768708    0.0096015186
       358.99998       292.89762       98567.725       13394.339       3.6920000       3.7330000     -0.67675000       343.66800       1.9538458     0.010923406
       364.00000       292.89238       98557.861       13409.635       3.7195000       3.9735000     -0.22625000       343.75600       1.9139077    0.0095925241
       369.00001       292.94602       98559.908       13462.500       2.6340000       1.8642500       1.0037500       344.07700       1.9038278    0.0092874660
       373.99998       293.07930       98559.133       13597.644       3.6357500       1.3047500       1.1712500       343.83500       1.9147655    0.0099924296
       379.00000       293.16854       98558.520       13693.522       3.2122500       3.3640000     -0.21000000       343.96700       1.9055062    0.0085267466
       384.00001       293.29014       98580.009       13796.829       1.6870000       1.4912500      0.16475000       344.12200       1.9239357     0.010432188
       389.00002       293.37708       98579.893       13903.157       2.4685000       2.7130000     -0.12025000       344.01300       1.9261317     0.010609831
       394.00000       293.40855       98545.948       13976.115       3.4115000       2.8305000      0.46850000       343.73000       1.9372251    0.0099287961
       399.00001       293.45843       98540.916       14082.273       2.4065000       3.6185000      0.27950000       343.78100       1.9383234    0.0094745552
       404.00002       293.52342       98547.117       14246.161       2.3402500       3.8592500     -0.42675000       343.33300       1.9113538    0.0093865071
       408.99999       293.56230       98548.546       14363.511       3.2137500       3.5720000      0.50000000       343.51600       1.9250310    0.0096156270
       414.00001       293.60415       98573.791       14518.500       2.4907500       3.7850000      0.79525010       344.02500       1.9274984    0.0098467936
       419.00002       293.61204       98581.017       14577.145       1.5180000       3.8995000      0.19525000       343.60200       1.9162413    0.0094608470
       424.99999       293.58792       98559.220       14587.961      0.58425000       2.9750000      0.42100000       343.98600       1.9263461    0.0097360289
       430.00000       293.54081       98557.714       14504.515       4.3170000       2.5557500     -0.23625000       343.78800       1.9192928    0.0098737994
       435.00001       293.45774       98567.935       14287.605       2.8797500       2.9920000      0.23800000       343.76500       1.9318871    0.0092789482
       439.99999       293.37370       98565.212       14116.713       3.3747500       3.6062500      0.28525000       343.51500       1.9525712    0.0098191024
       445.00000       293.24773       98559.701       13867.725       3.3752500       3.1132500      0.14750000       343.55300       1.9407247    0.0097854168
       450.00001       293.16120       98560.790       13698.269       3.7152500       2.3025000      0.20850000       343.77400       1.9197082    0.0098178844
       454.99999       293.07052       98552.468       13572.648       3.4320000       2.3157500     -0.47075000       343.59400       1.9149802    0.0088751349
       460.00000       293.01757       98553.279       13459.520       2.1600000      0.30525000     -0.11575000       344.08000       1.9080344    0.0092672660
       465.00001       293.01747       98580.372       13374.457       2.7090000       1.2872500     -0.10075000       343.85800       1.9110658    0.0099310105
       469.99999       292.98760       98578.870       13301.580       3.3305000      -1.6062500      0.32125000       344.08700       1.8651309    0.0094663564
       475.00000       292.96216       98549.114       13235.344       4.9030000    0.0062500000     0.038750000       343.96900       1.9093538     0.010077298
       480.00001       292.94225       98546.906       13205.480       4.5187500     -0.82025000     -0.62125000       343.56300       1.9083152    0.0096588898
       484.99998       292.93202       98549.738       13229.348       3.2322500       2.4670000      0.53225000       344.04100       1.9065985    0.0088474933
       490.00000       292.88812       98547.970       13217.523       4.9620000      0.24150000      0.16250000       343.85300       1.8803531    0.0094675734
       495.00001       292.84963       98565.713       13221.526       4.0920000      0.43000000      0.16850000       344.10100       1.9000798     0.010049172
       499.99998       292.78175       98569.581       13207.174       4.8522500      0.67900000      0.34175000       344.33100       1.9332486     0.010207323
       505.00000       292.64566       98547.803       13142.073       5.4382500     -0.11425000      0.18550000       344.02600       1.9095330    0.0099115427
       510.00001       292.55890       98546.902       13124.897       2.5897500       1.1640000      0.35750000       344.02500       1.9088772    0.0095651677
       516.00002       292.44796       98567.333       13114.660       3.1547500       1.6702500      0.61900000       344.05400       1.9182155    0.0093063072
       520.99999       292.41691       98566.833       13151.393       4.0042500       1.9980000     0.037500000       343.94200       1.9213727     0.010259365
       526.00000       292.45314       98560.107       13256.614       3.6940000      0.65725000     0.026750000       343.78400       1.9184647    0.0097603923
       531.00002       292.44306       98561.090       13298.176       5.1125000      0.22500000     -0.34000000       343.46300       1.9249413    0.0090192361
       535.99999       292.44649       98553.474       13340.133       5.2007500       1.4462500     -0.95975010       343.12500       1.9192668    0.0090568997
       541.00000       292.45691       98554.046       13382.009       3.5475000       1.2027500     -0.46475000       343.77100       1.8862429    0.0093467297
       546.00002       292.45455       98573.591       13386.939       3.2675000       1.1630000      0.37400000       343.58000       1.9147302    0.0099945499
       550.99999       292.44467       98572.940       13409.587       4.0582500      0.93750010      0.10650000       343.60900       1.8978218    0.0092516331
       556.00000       292.46861       98553.278       13472.923       3.6110000      0.28775000     -0.30625000       343.82700       1.8992795    0.0093045579
       561.00001       292.44625       98553.862       13486.251       3.8690000       1.1422500     -0.40600000       343.69900       1.9105345     0.010266337
       565.99999       292.37036       98561.910       13474.048       2.6367500      0.73425000     -0.11125000       344.11500       1.8581314     0.011407645
       571.00000       292.32088       98559.346       13443.160       3.9367500      0.99200000      0.47800000       343.61000       1.9291176    0.0091455498
       576.00001       292.27184       98562.435       13386.751       5.2577500      0.81000010      0.10100000       343.24400       1.8965743     0.010188272
       580.99999       292.22170       98561.542       13329.369       4.3995000       1.7030000     -0.19125000       343.63100       1.8843394    0.0090304904
       586.00000       292.17063       98542.850       13247.696       3.0362500       1.7307500     -0.11500000       343.60400       1.9186679    0.0094426091
       591.00001       292.12050       98542.559       13175.894       2.4265000       1.1450000     -0.36325000       343.78400       1.8967748    0.0093936596
       595.99999       292.05809       98557.561       13090.593       2.3202500      0.59925000      0.90475000       343.99000       1.9088851    0.0092532195
       601.00000       292.02420       98564.532       13037.955       4.5237500       3.2512500      -1.1660000       343.59900       1.9058544    0.0098618964
