MIRICO/SHELL project - Processed LDS file generated on
Tue Jul 18 21:32:03 2017
Time stamp for record start
05/11/2017  15:22: 7.0000
Nb of points in the record
         511
Beam position index
       5.0000000
Beam angle (degrees)
       8.5290000
Open Path length (m)
       83.010000
****************** Temporal data record ************************
Elapsedtime_sec Temp_K Press_Pa Humidity_ppmv WindX_m/s WindY_m/s WindZ_m/s Speedofsound_m/s CH4vmr_ppmv CH4vmrerror_ppmv  
      0.00000000       292.71670       98561.948       13406.673      0.71450000       1.4247500      0.45475000       344.55900       1.8967338     0.015979442
       5.0000131       292.76473       98557.638       13411.500       2.2572500       1.1327500      0.22900000       343.62200       1.9312426     0.020810288
       9.9999860       292.82482       98559.732       13442.456       1.1980000       1.9390000     -0.12100000       343.32500       1.9183017     0.015146725
       14.999999       292.86400       98574.435       13493.801       1.5857500      0.68900000      0.24650000       344.76600       1.8769958     0.014496862
       20.000012       292.91747       98578.200       13532.137       2.1842500       2.1077500     -0.34025000       344.08100       1.8803569     0.019780896
       26.000020       293.04070       98579.606       13609.078       1.5190000       1.5545000     -0.18600000       344.97600       1.8927571     0.017303565
       30.999993       293.08829       98574.286       13652.606       2.2797500       2.2672500     -0.71450000       343.51400       1.9709968     0.012582259
       36.000006       293.11094       98553.283       13680.461       1.2012500       2.6255000     -0.43675000       343.06700       1.9350040     0.013297728
       41.000019       293.10822       98552.409       13690.277       1.4467500       1.5155000    -0.015250000       344.19800       1.8741151     0.014828860
       45.999992       293.03556       98558.396       13666.930       2.0017500       2.3870000   -0.0025000000       344.26200       1.9202799     0.017782155
       51.000005       293.04791       98560.552       13696.175       1.3882500      0.60800000      0.57350000       344.45100       1.9044210     0.019290396
       56.000018       293.06351       98579.041       13724.052       1.9695000       1.2200000      0.37850000       344.48900       1.9298278     0.011998260
       60.999991       293.12180       98577.755       13771.126       2.1010000       1.5855000      0.19150000       344.09900       1.9075809     0.022890365
       66.000004       293.27108       98553.241       13874.288       2.7450000    -0.013250000    -0.026000000       343.70500       1.8717363     0.015191523
       71.000017       293.35392       98552.372       13947.297       3.0725000      0.60825000    -0.053750000       344.10500       1.9239997     0.019407316
       75.999990       293.45174       98558.063       14028.239       2.6592500       1.1957500      0.16100000       343.99000       1.8961819     0.014686696
       81.000003       293.48249       98560.360       14059.877       1.3037500      0.71500000      0.48700000       345.87800       1.9310969     0.021350939
       86.000016       293.45665       98578.992       14091.101       2.2535000       2.6182500    -0.063000000       344.67700       1.8812096     0.017712414
       90.999989       293.45037       98577.609       14067.496       1.7572500       2.9910000     0.050250000       344.13700       1.8937960     0.020912651
       96.000002       293.42277       98553.208       13983.373       2.1762500       2.4192500      0.40125000       344.44300       1.8970332     0.018795822
       101.00002       293.37653       98552.321       13892.291      0.88325010       2.2765000     0.018250000       345.45700       1.9019392     0.018445200
       105.99999       293.31543       98560.515       13749.261      0.83800010       4.7507500     -0.16900000       343.46300       1.8836785     0.014336369
       111.00000       293.27573       98559.492       13656.465       1.8747500       1.6360000      0.85525010       345.84100       1.9612127     0.013503182
       117.00001       293.21207       98567.642       13552.210       2.8807500       2.4267500     -0.28750000       343.85000       1.9158077     0.019363961
       122.00002       293.15235       98566.167       13453.350       2.8525000       2.8762500    -0.059250000       343.37900       1.9239763     0.016241705
       127.00000       293.07200       98546.552       13329.118       2.6552500       2.0600000     -0.27725000       343.66800       1.8861311     0.015101442
       132.00001       293.10729       98548.886       13332.510       2.7255000       2.3117500     -0.32225000       343.42200       1.9531587     0.015594733
       137.00002       293.17838       98567.477       13373.613       1.6777500       2.8512500     -0.13975000       343.72300       1.9241960     0.017310315
       141.99999       293.23566       98565.942       13420.302       2.9892500       2.3745000     -0.30675000       344.34600       1.9453981     0.013273805
       147.00001       293.41280       98561.782       13589.550       1.9425000      0.91125010    -0.084250000       343.40100       1.9129398     0.017254586
       152.00002       293.45844       98559.114       13664.354       2.6612500       2.4715000     -0.40250000       343.21300       1.9875733    0.0099595422
       156.99999       293.39149       98541.943       13660.155       2.7947500       1.8580000     -0.29150000       343.32400       1.9568041     0.018458027
       162.00001       293.41024       98543.166       13726.717       2.9085000       1.6612500    -0.088750000       344.06800       1.8904669     0.015881552
       167.00002       293.43527       98562.598       13828.148       2.2087500       2.8387500      0.15950000       344.48000       1.9005719     0.016638073
       171.99999       293.47417       98562.069       13908.040       1.7015000       2.2052500     -0.83625010       343.71900       1.8689794     0.017335691
       177.00001       293.57517       98554.571       14033.877       3.6230000       3.0670000      0.40575000       343.68500       1.9204917     0.019928408
       182.00002       293.55002       98556.587       14028.131       3.6290000       1.8152500     -0.71825000       343.34500       1.9415063     0.016787752
       186.99999       293.47208       98553.389       13957.972       4.4172500      0.80175010    -0.082250010       343.88800       1.9616074     0.013747920
       192.00000       293.40477       98555.997       13894.868       2.9372500       1.5842500       1.0870000       344.62300       1.9121193     0.018819380
       197.00002       293.23486       98573.802       13722.219       3.4100000       3.9737500      0.20300000       344.25300       1.9322047     0.017508431
       202.99999       293.23020       98555.278       13717.278       2.4422500       1.6932500     0.037750000       343.30800       1.9543893     0.017433511
       208.00000       293.23763       98552.773       13705.510       3.7025000       2.2932500     -0.40075000       343.45900       1.8942224     0.015319282
       213.00001       293.26958       98555.185       13705.050       3.9942500       1.5817500     -0.58450000       344.60600       1.8876921     0.013593065
       217.99998       293.36232       98558.650       13748.382       3.2570000       3.2787500     -0.22500000       344.14200       1.8686072     0.015535939
       223.00000       293.36985       98561.977       13721.616       1.7572500       1.7295000      0.56575000       344.90100       1.8657016     0.017417748
       228.00001       293.34963       98579.494       13656.472       2.6177500       2.0115000      0.15300000       345.20400       1.9488013     0.018682634
       232.99998       293.37570       98556.865       13610.433       2.6467500       1.4462500    0.0022500000       344.30000       1.8870221     0.016496811
       238.00000       293.35744       98552.101       13588.829       1.7590000       1.5462500     0.056250000       345.13900       1.8792986     0.016256308
       243.00001       293.37006       98562.669       13638.329       3.3815000       2.6587500     0.016000000       344.06600       1.8625486     0.015574543
       248.00002       293.32535       98560.770       13639.639       2.6290000       2.4222500    -0.097000000       344.49300       1.8700037     0.018157833
       253.00000       293.23142       98557.649       13623.056       2.3395000      0.92900000     -0.29375000       345.54900       1.8892471     0.020508951
       258.00001       293.03307       98562.557       13587.271       3.8735000       2.0025000    -0.073750000       344.18200       1.9375961     0.019881068
       263.00002       292.97677       98560.049       13577.359       2.8105000       2.5027500     -0.66625010       344.59500       1.8995139     0.014818597
       267.99999       292.92668       98541.308       13549.103       3.2465000       1.9875000     -0.47425000       344.83500       1.8940042     0.016148379
       273.00001       292.98635       98563.808       13528.324       2.5897500       1.4525000      0.19950000       345.19500       1.8791431     0.014912117
       278.00002       293.04545       98568.521       13543.365       3.3842500       2.7705000     -0.94225010       343.41800       1.9009749     0.019472965
       282.99999       293.11621       98562.489       13566.723       3.3047500       2.6360000     -0.37250000       343.15500       1.9015181     0.013950939
       288.00001       293.19444       98561.799       13596.433       2.4985000       2.4045000     -0.37925000       344.19600       1.8983204     0.017541648
       294.00001       293.34828       98547.523       13678.343       2.8330000       1.5167500     -0.20575000       343.96900       1.8788989     0.021428514
       298.99999       293.42523       98542.031       13755.253       5.0497500       1.8075000     -0.14950000       343.60500       1.9037840     0.017842031
       304.00000       293.49494       98550.678       13849.991       4.5792500      0.82850000      0.48400000       343.92200       1.9190858     0.016379876
       309.00001       293.52081       98551.339       13917.396      0.92550000       2.9325000     0.064750000       343.86900       1.8826020     0.018273792
       313.99999       293.52241       98541.326       14052.196       2.8537500       1.8780000      0.82775000       344.37400       1.9013355     0.015002325
       319.00000       293.45720       98543.897       14064.692       1.6622500       4.3585000    -0.077250000       344.74500       1.8934996     0.017801551
       324.00001       293.28557       98559.273       13957.148       3.0385000       4.0742500     -0.90025000       343.87000       1.8936025     0.015367274
       328.99999       293.17468       98562.139       13880.042       4.4032500       5.6435000     -0.19225000       343.46900       1.8884713     0.018390602
       334.00000       293.00451       98566.358       13722.821       4.6870000       4.7627500     -0.36575000       343.05300       1.8911987     0.011643350
       339.00001       292.91045       98567.899       13615.739       3.6240000       2.8885000    0.0037500000       343.75800       1.8662764     0.018742075
       343.99998       292.90972       98548.937       13540.545       3.0775000       2.5332500      0.31050000       343.69700       1.8957980     0.017550798
       349.00000       292.89124       98546.841       13480.200       3.6725000       3.8400000     -0.25075000       343.49700       1.8409897     0.016527523
       354.00001       292.88613       98566.215       13411.299       3.1625000       3.8037500      0.46650000       344.04200       1.8389901     0.015760528
       358.99998       292.89762       98567.725       13394.339       1.5512500       2.0832500      0.88075010       344.04500       1.9011147     0.019226908
       364.00000       292.89238       98557.861       13409.635       3.7402500       3.2442500    -0.022500000       343.73500       1.8862904     0.016870116
       369.00001       292.94602       98559.908       13462.500       2.3440000       1.7407500      0.11325000       344.23500       1.8700570     0.016165433
       373.99998       293.07930       98559.133       13597.644       3.3857500       2.2617500      0.36425000       343.82100       1.9045034     0.014078317
       379.00000       293.16854       98558.520       13693.522       2.9620000       3.1802500    -0.053250000       343.81800       1.8689915     0.013992198
       385.00000       293.30949       98580.872       13818.405       2.0870000       2.7140000     0.050500000       344.02100       1.8941425     0.014428807
       390.00002       293.39152       98578.540       13923.951       2.4785000       2.0957500     -0.22500000       343.84800       1.8712013     0.014980865
       394.99999       293.41850       98544.243       13995.821       2.7640000       3.3580000     -0.42725000       343.80900       1.8674052     0.014577020
       400.00000       293.46846       98540.958       14105.800       2.0700000       5.2242500     -0.15525000       343.88600       1.8890698     0.015294544
       405.00002       293.53220       98547.001       14270.795       1.4082500       3.5827500     0.036000000       343.39000       1.8753392     0.014221210
       409.99999       293.56857       98549.434       14385.222       2.9515000       3.3902500      0.14250000       343.74300       1.9185069     0.020099141
       415.00000       293.60775       98576.043       14535.026       1.8390000       3.3627500     -0.55125000       343.77100       1.9106568     0.016792951
       420.00002       293.61059       98581.251       14581.667       2.7435000       4.5810000     -0.44125000       343.82000       1.9138630     0.019021465
       424.99999       293.58792       98559.220       14587.961       3.3590000       3.1070000      0.13100000       343.85400       1.8797305     0.016313456
       430.00000       293.54081       98557.714       14504.515       3.3920000       3.2087500     -0.33350000       343.83300       1.8959412     0.020586902
       435.00001       293.45774       98567.935       14287.605       4.5800000       2.8337500     -0.32550000       343.29100       1.9032428     0.016424933
       439.99999       293.37370       98565.212       14116.713       1.9387500       3.6160000      -1.0062500       343.40200       1.8684166     0.023621041
       445.00000       293.24773       98559.701       13867.725       3.0502500       3.4445000      -1.2550000       343.51100       1.8721339     0.016356367
       450.00001       293.16120       98560.790       13698.269       2.5297500       3.4425000     -0.56575000       343.61000       1.8512760     0.018251875
       454.99999       293.07052       98552.468       13572.648       3.9302500       2.8222500     -0.41950000       343.53800       1.8623042     0.017775435
       460.00000       293.01757       98553.279       13459.520       2.2890000      0.79500000      0.25425000       344.31300       1.8721567     0.020375837
       465.00001       293.01747       98580.372       13374.457       2.3957500      0.77800010      0.83800010       344.18200       1.9264225     0.017080798
       469.99999       292.98760       98578.870       13301.580       3.3527500    -0.094250000      0.28675000       344.32800       1.8458893     0.017220335
       475.99999       292.95818       98548.180       13227.301       4.5742500      0.46075000      0.10275000       343.92100       1.9228124     0.019629448
       481.00001       292.93827       98547.203       13202.608       2.9745000     -0.76575010      0.32100000       344.35800       1.8397431     0.012008412
       486.00002       292.92426       98549.069       13227.129       3.7960000      0.92025010      0.25250000       344.16700       1.8460557     0.015041289
       490.99999       292.87780       98548.090       13214.937       4.8250000      0.64550000     -0.20525000       343.83300       1.8731701     0.013217587
       496.00001       292.83806       98567.088       13219.771       4.6385000       1.2090000      0.51550000       344.05200       1.8226923     0.015058138
       501.00002       292.76518       98569.453       13202.628       3.7540000     -0.44900000      0.49925000       344.31200       1.8551787     0.016204849
       505.99999       292.62723       98547.015       13137.172       4.7575000      0.53625010      0.66875000       343.74100       1.8960185     0.018629097
       511.00000       292.54317       98547.633       13123.654       4.4822500      0.60000000     -0.16050000       343.50500       1.8719292     0.017073422
       516.00002       292.44796       98567.333       13114.660       3.3960000      0.88675000      0.17325000       343.40100       1.8568262     0.013005933
       520.99999       292.41691       98566.833       13151.393       3.7127500       1.3047500     -0.76750000       343.64600       1.8887051     0.013162120
       526.00000       292.45314       98560.107       13256.614       3.7342500     -0.24350000      0.17500000       343.92300       1.8555516     0.019025946
       531.00002       292.44306       98561.090       13298.176       4.1902500       1.7067500     -0.73575000       343.76900       1.8960837     0.013690963
       535.99999       292.44649       98553.474       13340.133       4.3870000       1.2635000     -0.55125000       343.20900       1.8780345     0.013818404
       541.00000       292.45691       98554.046       13382.009       4.6855000       2.2280000     -0.45350000       343.46000       1.8668291     0.014126984
       546.00002       292.45455       98573.591       13386.939       3.2177500       1.0845000      0.46275000       343.77100       1.8745189     0.013793403
       550.99999       292.44467       98572.940       13409.587       3.9487500       1.4277500     -0.29425000       343.74900       1.8913824     0.017517592
       556.00000       292.46861       98553.278       13472.923       3.3775000       1.3345000    -0.082000000       344.02600       1.8371274     0.016092641
       561.00001       292.44625       98553.862       13486.251       3.2800000      0.79100000      0.46675000       343.99100       1.8634872     0.014585478
       567.00002       292.36046       98561.495       13469.447       2.5807500      0.80700000      0.71725000       344.07600       1.8625970     0.014575592
       572.00000       292.31099       98558.687       13434.624       5.0367500       1.6945000     -0.39475000       343.50200       1.8683891     0.017041861
       577.00001       292.26186       98562.566       13376.198       4.5537500       1.3637500      0.17550000       343.34400       1.8636023     0.015672025
       582.00002       292.21161       98560.900       13316.510       4.1182500       2.2500000     -0.19925000       343.70200       1.8671958     0.013073849
       586.99999       292.16060       98542.190       13233.385       3.7090000       1.8830000     -0.73500000       343.52500       1.9081196     0.016922527
       592.00001       292.11049       98543.403       13161.460       2.9150000       1.6102500     -0.31050000       343.77000       1.8566517     0.015386335
       597.00002       292.05027       98558.962       13078.935       3.1337500      0.98475000    -0.030250000       343.86300       1.8510608     0.017022796
       601.99999       292.01899       98565.917       13029.118       4.4535000       1.9180000      -1.0795000       343.56400       1.8889050     0.019208352
