MIRICO/SHELL project - Processed LDS file generated on
Tue Jul 18 23:24:24 2017
Time stamp for record start
05/11/2017  15:22: 8.0000
Nb of points in the record
         511
Beam position index
       6.0000000
Beam angle (degrees)
       13.599000
Open Path length (m)
       58.300000
****************** Temporal data record ************************
Elapsedtime_sec Temp_K Press_Pa Humidity_ppmv WindX_m/s WindY_m/s WindZ_m/s Speedofsound_m/s CH4vmr_ppmv CH4vmrerror_ppmv  
      0.00000000       292.72476       98562.521       13407.380       1.1495000      0.86850010      0.48475000       344.91600       1.7829647     0.025004404
       5.0000131       292.77677       98557.758       13416.539       2.0202500       1.4517500       1.2812500       344.19200       1.8006218     0.025966124
       10.000026       292.83680       98560.600       13450.382       1.1615000       2.1232500    -0.064750000       343.32100       1.7811772     0.025817386
       14.999999       292.87372       98575.485       13501.060       1.1490000      0.77800010      0.16975000       344.77200       1.8313901     0.024253202
       20.000012       292.92964       98578.508       13540.417       1.4180000       2.6862500     -0.59675000       343.64400       1.8199895     0.025323646
       25.000025       293.04070       98579.606       13609.078       1.2477500       2.3020000     -0.30975000       344.42200       1.8216764     0.023679718
       29.999998       293.08829       98574.286       13652.606       1.7755000       2.9240000     -0.52950000       343.46600       1.8245020     0.026164814
       35.000011       293.11094       98553.283       13680.461       1.1125000       2.2855000     -0.30375000       343.48000       1.8106609     0.025198978
       40.000024       293.10822       98552.409       13690.277       1.3362500       1.6275000      0.11650000       344.26400       1.8690881     0.024825533
       44.999997       293.03556       98558.396       13666.930       2.2227500       1.8870000     -0.11775000       344.11600       1.8323407     0.024242080
       50.000010       293.04791       98560.552       13696.175      0.86400000       1.5290000     -0.18000000       344.41300       1.8019651     0.024784454
       55.000024       293.06351       98579.041       13724.052       2.0415000       1.8207500     -0.30425000       343.85700       1.8541032     0.024730470
       59.999996       293.12180       98577.755       13771.126       2.2592500       1.4352500    -0.093750010       344.10900       1.8295701     0.024908667
       65.000010       293.27108       98553.241       13874.288       2.5125000      0.50475000      0.11525000       344.49800       1.8258170     0.028566042
       70.000023       293.35392       98552.372       13947.297       3.2272500      0.86500010     -0.26125000       344.31100       1.8327856     0.026321538
       75.999990       293.46090       98558.312       14036.467       2.2730000       1.2915000     -0.41775000       343.96300       1.8175407     0.023577421
       81.000003       293.48413       98561.134       14063.348      0.77075000      0.42100000      0.40375000       345.05900       1.8224216     0.026055592
       86.000016       293.45639       98579.417       14089.652       2.4147500       1.9622500     -0.25600000       344.73300       1.8105997     0.024941907
       90.999989       293.44762       98576.280       14057.872       1.3377500       2.5547500      0.53700000       344.52500       1.7820084     0.026069306
       96.000002       293.41452       98552.521       13967.027       2.4550000       2.1795000      0.36025000       344.58100       1.8945289     0.021871566
       101.00002       293.36578       98552.909       13871.283      0.23075000       2.1042500     0.078500000       345.59100       1.8200787     0.026882270
       105.99999       293.30749       98560.309       13729.945       1.2577500       3.6895000     -0.46575000       343.30300       1.8432652     0.024515318
       111.00000       293.26780       98559.289       13639.038       1.9810000       1.0787500      0.95850000       345.25300       1.8202797     0.025533690
       116.00001       293.21207       98567.642       13552.210       3.6485000       2.7202500     -0.51625000       343.21500       1.8249759     0.024555798
       121.00003       293.15235       98566.167       13453.350       3.6325000       3.5607500      0.11700000       343.23400       1.7390469     0.026121456
       126.00000       293.07200       98546.552       13329.118       3.4777500       2.4295000      0.28650000       343.78500       1.8193249     0.023370145
       131.00001       293.10729       98548.886       13332.510       1.6857500       2.7240000      0.46850000       344.02100       1.7923377     0.023332958
       136.00003       293.17838       98567.477       13373.613       2.1210000       2.4737500     -0.24050000       343.95300       1.8673476     0.023927413
       141.00000       293.23566       98565.942       13420.302       2.0770000       1.6795000      0.83500000       344.83800       1.8155197     0.023744460
       146.00001       293.41280       98561.782       13589.550       2.2692500       1.3092500      0.11400000       343.57700       1.8652140     0.028219278
       151.00003       293.45844       98559.114       13664.354       3.2275000       2.5500000    -0.079250000       343.25700       1.8725314     0.024236237
       156.00000       293.39149       98541.943       13660.155       2.1275000       2.3530000     -0.37675000       343.36300       1.8300623     0.025200544
       161.00001       293.41024       98543.166       13726.717       3.2577500       2.5177500      0.25750000       344.10400       1.7888900     0.023949783
       167.00002       293.44201       98562.893       13844.115       2.1962500       1.7300000       1.1612500       344.81600       1.8037163     0.024267895
       171.99999       293.48350       98561.361       13924.040       2.7030000       1.9137500      0.10425000       344.62000       1.9008131     0.024075684
       177.00001       293.57414       98554.872       14037.516       3.7567500       3.3585000      0.38650000       343.85900       1.8197919     0.026228690
       182.00002       293.50839       98553.973       13986.110       3.4297500       1.6865000     -0.25650000       343.29300       1.9147727     0.027923630
       186.99999       293.46057       98553.614       13947.826       2.7720000      0.43200000       1.8085000       344.72400       1.8422730     0.024252294
       192.00000       293.29801       98570.325       13786.946       3.7740000       3.3312500     -0.54400000       343.94000       1.8305834     0.025800041
       197.00002       293.22399       98573.934       13710.413       3.1247500       4.8905000     -0.25425000       343.42700       1.8121330     0.026098663
       201.99999       293.23020       98555.278       13717.278       2.4390000       2.1922500      0.22375000       343.37700       1.7567468     0.021267688
       207.00000       293.23763       98552.773       13705.510       4.1842500       1.9172500    0.0045000000       343.42400       1.8060633     0.023993413
       212.00002       293.26958       98555.185       13705.050       2.5755000       2.5067500     -0.87300000       344.58500       1.8447914     0.025569571
       216.99999       293.36232       98558.650       13748.382       3.3105000       2.4327500      0.27200000       344.39900       1.8301491     0.023393002
       222.00000       293.36985       98561.977       13721.616       2.0695000       3.0685000      0.48225000       344.88100       1.8252462     0.023724503
       227.00002       293.34963       98579.494       13656.472       2.4137500       1.4455000     -0.27950000       345.00000       1.7946756     0.024766671
       231.99999       293.37570       98556.865       13610.433       3.0955000       1.8590000     0.071750000       344.01100       1.8226323     0.024563053
       237.00000       293.35744       98552.101       13588.829       1.4105000       1.0660000      0.39750000       345.32000       1.8021756     0.023514246
       242.00002       293.37006       98562.669       13638.329       2.9880000       2.8265000     -0.22450000       343.92700       1.8174895     0.024298372
       247.00003       293.32535       98560.770       13639.639       2.9840000       1.7670000     -0.43525000       344.63300       1.8379358     0.025336936
       252.00000       293.23142       98557.649       13623.056       2.2252500      0.99475000   -0.0010000000       345.61600       1.8413646     0.022934569
       258.00001       293.01886       98562.367       13585.140       2.7705000       2.6630000     -0.27800000       344.36800       1.8567680     0.024516897
       263.00002       292.95054       98543.620       13565.387       2.7385000       3.1652500      0.10275000       344.78300       1.8204641     0.023777956
       267.99999       292.92574       98541.610       13545.877       2.7262500       2.7657500      0.33975000       344.11800       1.8206225     0.024740831
       273.00001       292.99720       98565.260       13530.157       2.0090000       2.3005000     -0.56525000       344.66700       1.8020135     0.023906201
       278.00002       293.05873       98568.699       13548.138       2.8212500       3.9257500     -0.98550000       343.53000       1.8672973     0.022870250
       282.99999       293.13087       98562.549       13571.086       2.9327500       2.5875000     -0.88375000       343.20800       1.8111429     0.024062014
       288.00001       293.21156       98561.365       13604.750       3.7517500       1.8425000     -0.29775000       343.69700       1.8469172     0.023512008
       293.00002       293.34828       98547.523       13678.343       2.5597500      0.99700000    -0.012000000       343.86800       1.8500058     0.022561776
       297.99999       293.42523       98542.031       13755.253       4.7070000       2.4405000     -0.20025000       343.66500       1.8253021     0.022709567
       303.00001       293.49494       98550.678       13849.991       4.2955000       1.6750000       1.7152500       344.16100       1.8574723     0.022101644
       308.00002       293.52081       98551.339       13917.396       2.0680000       2.9797500      0.36900000       343.83000       1.8167086     0.022764001
       312.99999       293.52241       98541.326       14052.196       2.3055000       2.4025000      0.53300010       344.33400       1.7908898     0.023521280
       318.00001       293.45720       98543.897       14064.692    -0.042500000       4.9662500      0.35550000       344.00400       1.8984072     0.023014637
       323.00002       293.28557       98559.273       13957.148       2.4025000       3.0067500      -1.0850000       343.90100       1.8387666     0.021905757
       327.99999       293.17468       98562.139       13880.042       3.0057500       5.4607500     -0.76925000       343.87800       1.8160843     0.021732112
       333.00000       293.00451       98566.358       13722.821       4.5747500       4.5357500     -0.61075000       343.27800       1.8710385     0.021672441
       338.00002       292.91045       98567.899       13615.739       3.2787500       5.3982500     -0.67800000       343.56800       1.8284902     0.023084624
       344.00003       292.90502       98547.911       13527.248       2.5182500       2.5080000      0.63975000       343.93500       1.8650475     0.022060481
       349.00000       292.88905       98547.332       13469.967       3.7812500       2.1180000     -0.28850000       343.60300       1.8549354     0.021752681
       354.00001       292.88742       98566.916       13405.084       3.0450000       3.8032500     -0.19700000       343.54700       1.8619986     0.022292981
       359.00002       292.90142       98567.428       13395.181       3.2550000       2.5685000      0.92350010       344.31100       1.7952118     0.023237296
       364.00000       292.90011       98558.162       13417.205       3.6245000       3.2387500     -0.59550010       343.86200       1.8435655     0.020927410
       369.00001       292.96125       98560.480       13477.595       4.0555000      0.91400000      0.56775000       343.90200       1.8222671     0.023115965
       374.00002       293.09715       98558.716       13616.813       3.9405000       3.2565000      0.20500000       343.94300       1.8816571     0.022109568
       379.00000       293.18639       98558.839       13712.708       2.6977500       2.4375000      0.55200000       343.95800       1.8101576     0.024673416
       384.00001       293.30949       98580.872       13818.405       2.5352500       1.5747500      0.84275000       344.47700       1.9015116     0.020403407
       389.00002       293.39152       98578.540       13923.951       2.6230000       1.1275000      0.96025000       344.05600       1.8393317     0.022542817
       394.00000       293.41850       98544.243       13995.821       2.9712500       4.2927500     -0.27225000       343.38800       1.8830056     0.021969539
       399.00001       293.46846       98540.958       14105.800       2.8560000       4.8765000     -0.12300000       342.92700       1.8146087     0.021702180
       404.00002       293.53220       98547.001       14270.795       2.5590000       1.4515000     -0.28800000       343.55500       1.8637705     0.023523524
       408.99999       293.56857       98549.434       14385.222       2.7847500       3.2092500     -0.48075000       343.34400       1.8623370     0.021744019
       414.00001       293.60775       98576.043       14535.026       2.4942500       3.8182500      0.30950000       343.60600       1.8719133     0.021681153
       419.00002       293.61059       98581.251       14581.667       2.1985000       3.1770000     -0.29700000       343.46200       1.8974594     0.020995753
       423.99999       293.58792       98559.220       14587.961       1.9022500       3.0782500     0.084000010       343.92800       1.8990050     0.021131099
       429.00001       293.54081       98557.714       14504.515       3.1557500       3.6972500     -0.29975000       343.87700       1.9042769     0.020658854
       435.00001       293.44202       98567.586       14254.843       4.4605000       3.1427500     -0.63600000       343.58000       1.8918427     0.022543181
       440.00003       293.35527       98564.374       14080.429       1.9847500       2.3265000      -1.3437500       343.55800       1.9009164     0.021915786
       445.00000       293.22941       98559.917       13831.124       3.4392500       1.8025000     -0.95525000       343.87000       1.8623574     0.022101810
       450.00001       293.14540       98561.011       13668.412       2.2727500       3.5180000     -0.51125000       343.74800       1.8811912     0.021706827
       455.00003       293.05787       98552.131       13548.244       4.5100000       3.5400000     -0.45175000       343.65700       1.8784006     0.021751864
       460.00000       293.01006       98554.189       13439.540       2.2275000      0.31550000      0.17975000       344.38700       1.8470369     0.021172724
       465.00001       293.01149       98580.958       13358.553       2.3102500      0.23625000      0.32175000       344.32700       1.8431727     0.021417924
       470.00003       292.98163       98577.240       13288.992       3.7947500     -0.31825000     -0.32475000       343.99500       1.8409889     0.023991621
       475.00000       292.95818       98548.180       13227.301       4.9577500     0.027500000     -0.14100000       343.69600       1.8221707     0.021913438
       480.00001       292.93827       98547.203       13202.608       3.6797500      0.77925000      0.33075000       344.51200       1.8283947     0.021836954
       485.00002       292.92426       98549.069       13227.129       5.3747500    -0.049750000      -1.2995000       344.10100       1.9168909     0.020491474
       490.00000       292.87780       98548.090       13214.937       5.0737500      0.40275000    -0.078750010       344.10800       1.8292799     0.021578316
       495.00001       292.83806       98567.088       13219.771       3.6922500       1.4990000     -0.15325000       343.89200       1.8697730     0.021317994
       500.00002       292.76518       98569.453       13202.628       6.4722500     -0.85575000      0.46525000       343.42000       1.8641984     0.021432633
       505.00000       292.62723       98547.015       13137.172       5.6000000      0.94275000       1.0495000       343.83700       1.8589302     0.021050938
       510.00001       292.54317       98547.633       13123.654       4.4592500       1.0672500      0.27250000       343.62600       1.8642322     0.020451444
       515.00002       292.44796       98567.333       13114.660       4.1845000       1.6945000    -0.015750000       343.73500       1.8851709     0.020192903
       520.00000       292.41691       98566.833       13151.393       3.4262500      0.70525000     -0.34475000       343.92600       1.9217101     0.021914313
       526.00000       292.45111       98560.311       13265.819       2.4657500       1.8782500      0.90350000       344.00600       1.8697471     0.021572026
       531.00002       292.44107       98561.276       13305.151       3.4842500       1.4532500      0.33750000       343.88700       1.8808326     0.021599351
       535.99999       292.44858       98553.187       13349.260       5.2710000       1.3177500     -0.12400000       343.14900       1.8496974     0.021085199
       541.00000       292.45899       98554.762       13389.255       4.4542500       2.6285000     -0.65050010       343.21500       1.9097755     0.021608048
       546.00002       292.45259       98574.067       13390.946       2.7290000       1.5125000      0.23750000       343.92100       1.9026467     0.022235957
       550.99999       292.44267       98571.901       13414.899       4.6117500       1.5097500      0.51400000       343.66200       1.8896453     0.022196888
       556.00000       292.46611       98553.002       13477.321       3.1705000       1.1285000      0.93375000       343.99100       1.8930316     0.022075812
       561.00001       292.43883       98554.568       13486.316       4.0860000      0.86475000     -0.37675000       343.83200       1.8721560     0.023182848
       566.00003       292.36046       98561.495       13469.447       2.6230000       1.2492500      0.97575000       344.22100       1.8718546     0.020900897
       571.00000       292.31099       98558.687       13434.624       5.5940000       2.4205000     -0.12750000       343.68100       1.8952574     0.021399094
       576.00001       292.26186       98562.566       13376.198       3.7205000      0.69350000     -0.34250000       343.12200       1.9014408     0.021305133
       581.00003       292.21161       98560.900       13316.510       4.1827500       2.1625000     -0.14300000       343.71900       1.8348287     0.019529623
       586.00000       292.16060       98542.190       13233.385       3.2940000       2.2067500     0.070750010       343.68000       1.8793940     0.022053316
       591.00001       292.11049       98543.403       13161.460       2.4155000       1.3905000     -0.39900000       343.84100       1.9012537     0.022595864
       596.00003       292.05027       98558.962       13078.935       2.4707500      0.72575000     -0.63975000       343.75400       1.8882644     0.021749551
       601.00000       292.01899       98565.917       13029.118       3.4615000       1.6850000     -0.91825000       343.61800       1.8818457     0.021332628
