MIRICO/SHELL project - Processed LDS file generated on
Wed Jul 19 12:55:43 2017
Time stamp for record start
05/11/2017  15:22: 8.0000
Nb of points in the record
         511
Beam position index
       7.0000000
Beam angle (degrees)
       19.300000
Open Path length (m)
       33.730000
****************** Temporal data record ************************
Elapsedtime_sec Temp_K Press_Pa Humidity_ppmv WindX_m/s WindY_m/s WindZ_m/s Speedofsound_m/s CH4vmr_ppmv CH4vmrerror_ppmv  
      0.00000000       292.72476       98562.521       13407.380       1.5512500      0.77375000    -0.017750000       344.60800       1.9972640     0.020687973
       5.0000131       292.77677       98557.758       13416.539       1.4137500       1.5952500      0.18275000       344.45900       1.9950055     0.022481762
       10.000026       292.83680       98560.600       13450.382       1.0097500       1.8902500     0.019750000       343.72200       1.9954453     0.017566509
       14.999999       292.87372       98575.485       13501.060       1.0992500      0.98125000      0.66675000       345.08500       1.9719084     0.020151994
       20.000012       292.92964       98578.508       13540.417       1.4847500       2.6295000     0.046250000       344.04200       1.9825129     0.020390312
       25.000025       293.04070       98579.606       13609.078       1.3480000       2.2520000     -0.23250000       344.48500       1.9989036     0.020649096
       29.999998       293.08829       98574.286       13652.606       2.1305000       2.3830000     -0.17600000       343.83800       2.0000488     0.015716898
       36.000006       293.11242       98552.609       13683.478       1.4477500       2.3575000    -0.051250000       344.32500       1.9957055     0.016377071
       41.000019       293.10464       98552.983       13690.657       1.3837500       2.1702500     -0.19525000       344.54000       1.9854779     0.019519415
       45.999992       293.03603       98558.628       13671.570       1.8342500       2.1155000     -0.60150000       343.48800       1.9729754     0.017091590
       51.000005       293.05338       98561.282       13703.843       1.9890000       1.3632500     -0.50225000       344.37100       1.9977157     0.014749586
       56.000018       293.07219       98579.489       13731.777       1.8502500       2.5492500     -0.11200000       344.01800       2.0095151     0.020657665
       60.999991       293.13792       98576.439       13783.082       1.4987500       1.9257500     -0.17800000       343.83400       2.0199062     0.015451786
       66.000004       293.28863       98552.575       13889.309       2.2297500       1.0627500     0.095750000       344.76900       2.0084771     0.018914343
       71.000017       293.36901       98552.937       13961.267       2.9620000       1.4560000   -0.0062500000       344.48300       1.9886069     0.019431179
       75.999990       293.46090       98558.312       14036.467       2.2237500      0.84875010     -0.24725000       344.59300       2.0022061     0.019000246
       81.000003       293.48413       98561.134       14063.348       1.7792500      0.95400010    -0.088750000       344.53400       2.0027231     0.018937925
       86.000016       293.45639       98579.417       14089.652       2.5415000       1.6237500     -0.59975000       345.03700       1.9940447     0.015433139
       90.999989       293.44762       98576.280       14057.872       2.9330000       1.6822500       1.1497500       344.17500       1.9847577     0.015835614
       96.000002       293.41452       98552.521       13967.027       2.2410000       2.0927500     -0.31475000       344.39200       1.9642281     0.015750105
       101.00002       293.36578       98552.909       13871.283      0.45725000       1.3455000     -0.11600000       344.91700       1.9869091     0.018179733
       105.99999       293.30749       98560.309       13729.945     -0.32250000       4.0822500    -0.051500000       344.77700       2.0168784     0.023516823
       111.00000       293.26780       98559.289       13639.038       3.1842500       1.3210000      0.32200000       344.76900       1.9850874     0.023226058
       116.00001       293.21207       98567.642       13552.210       3.4232500       3.6130000     -0.83250000       343.54000       2.0014246     0.019158813
       121.00003       293.15235       98566.167       13453.350       4.1105000       3.2760000     -0.37225000       342.96700       2.0154862     0.021113795
       127.00000       293.07504       98546.412       13325.329       2.0747500       2.4715000     0.083750000       344.17900       2.0085605     0.017052948
       132.00001       293.12036       98550.264       13339.896      0.43625000       2.3430000      0.47475000       344.40500       2.0180111     0.020666865
       137.00002       293.18784       98567.571       13379.980       2.4632500       1.6035000    -0.064250000       343.86300       2.0452809     0.021162933
       141.99999       293.33970       98562.166       13510.266       1.7162500       1.3902500      0.61875000       345.44700       2.0753589     0.022033747
       147.00001       293.42599       98561.442       13606.686       1.9255000      0.45875000      0.38275000       343.72300       2.0417474     0.018975786
       152.00002       293.38534       98546.273       13620.383       3.3625000       2.4297500     -0.23500000       343.19400       2.0232033     0.022881243
       156.99999       293.39425       98541.597       13671.966       3.1625000       1.9200000     0.068750000       343.71000       2.0329663     0.017394241
       162.00001       293.41546       98544.296       13742.289       3.2155000       2.2812500     -0.22850000       343.43500       1.9866098     0.022211852
       167.00002       293.44201       98562.893       13844.115       2.3697500       1.6067500      0.54600000       344.53900       2.0134056     0.024487277
       171.99999       293.48350       98561.361       13924.040       3.6802500       2.4650000      0.28950000       344.84400       1.9137421     0.016041194
       177.00001       293.57414       98554.872       14037.516       5.0900000       3.7532500     -0.18575000       343.30400       2.0089212     0.016604550
       182.00002       293.50839       98553.973       13986.110       3.2047500       1.8737500     -0.30325000       343.11900       2.0005567     0.020339402
       186.99999       293.46057       98553.614       13947.826       4.0680000       1.3230000    -0.079500000       343.45800       1.9984435     0.017342925
       192.00000       293.29801       98570.325       13786.946       3.6717500       3.4130000      0.32675000       344.32600       1.9841944     0.017414834
       197.00002       293.22399       98573.934       13710.413       3.4482500       3.5190000      0.99900010       344.50800       1.9871138     0.019932276
       201.99999       293.23020       98555.278       13717.278       2.7550000       2.6350000    -0.028500000       343.77300       2.0340856     0.017531033
       207.00000       293.23763       98552.773       13705.510       4.8470000       3.3550000      0.19425000       343.65300       1.9900823     0.015764774
       212.00002       293.26958       98555.185       13705.050       2.4025000       2.2525000     -0.10125000       345.09000       1.9943126     0.021342490
       218.00002       293.36582       98559.105       13745.060       3.5505000       2.5907500     -0.40375000       343.87800       2.0215109     0.015834980
       223.00000       293.34157       98577.039       13679.735       2.4122500       2.3937500     -0.17625000       343.47100       2.0295491     0.019430377
       228.00001       293.35164       98579.232       13651.085       2.7682500       2.4707500     -0.20050000       343.66400       2.0325013     0.019109783
       233.00002       293.37308       98555.402       13604.299       3.1270000       2.4620000     -0.90475000       344.27700       2.0084158     0.016696821
       238.00000       293.35225       98551.913       13587.226       1.3467500       1.2055000     0.091750000       345.23800       1.9904011     0.020777213
       243.00001       293.36505       98562.387       13640.009       2.4450000       2.7000000      0.21925000       344.32800       1.9925779     0.024354121
       248.00002       293.31050       98560.243       13637.763       1.8642500       2.0602500      0.22975000       344.84200       1.9828848     0.021176692
       253.00000       293.10465       98561.763       13596.448       1.6177500       1.1765000      0.23600000       345.67900       2.0147386     0.019971726
       258.00001       293.01886       98562.367       13585.140       4.4792500       2.5247500     -0.15600000       344.53800       1.9839041     0.021918677
       263.00002       292.95054       98543.620       13565.387       3.5910000       2.0710000      0.33225000       344.95200       1.9669244     0.018007493
       267.99999       292.92574       98541.610       13545.877       3.3707500       2.7735000      0.17500000       344.63900       1.9710488     0.018905689
       273.00001       292.99720       98565.260       13530.157       2.4215000       2.5795000     -0.22425000       343.90500       2.0341073     0.020802214
       278.00002       293.05873       98568.699       13548.138       2.9495000       2.5805000     -0.29700000       344.02400       2.0362431     0.022695611
       282.99999       293.13087       98562.549       13571.086       2.9097500       2.3735000     -0.45350000       343.57600       2.0119578     0.017723711
       288.00001       293.21156       98561.365       13604.750       3.6187500       2.8017500     -0.16450000       343.50200       1.9775330     0.020442902
       293.00002       293.34828       98547.523       13678.343       2.9545000       1.9420000      0.53700000       344.12000       2.0199750     0.017933656
       297.99999       293.42523       98542.031       13755.253       4.0062500       2.3077500     -0.38600000       343.69500       2.0306279     0.017808748
       303.00001       293.49494       98550.678       13849.991      0.78975000       1.0375000       1.8162500       344.36600       2.0315282     0.021958565
       309.00001       293.52144       98551.166       13930.093       1.6425000       2.3540000      0.35650000       344.29300       2.0075306     0.021188758
       314.00003       293.51337       98541.437       14060.308       2.3015000       1.8932500    -0.037750000       344.48200       1.9879029     0.020937969
       319.00000       293.43815       98545.017       14058.780       2.6057500       3.6675000     -0.15325000       343.93000       2.0467448     0.025280705
       324.00001       293.26328       98560.055       13943.567       1.2305000       3.0472500      0.64175000       344.04700       2.0108587     0.018112668
       329.00003       293.15267       98562.399       13861.879       3.6875000       4.5772500     -0.27675000       344.08800       2.0255580     0.018627326
       334.00000       292.98176       98567.060       13699.561       5.1185000       5.1267500     -0.24650000       343.52100       2.0143726     0.019841334
       339.00001       292.89755       98567.618       13597.066       3.3930000       4.0060000    -0.030500000       343.61400       1.9878357     0.018236356
       344.00003       292.90502       98547.911       13527.248       4.1187500       4.2572500     -0.95875010       343.34800       2.0264125     0.017278225
       349.00000       292.88905       98547.332       13469.967       2.1690000       2.4155000     0.037500000       343.65800       2.0410558     0.020480465
       354.00001       292.88742       98566.916       13405.084       3.7037500       3.2112500     -0.19950000       343.69900       2.0236721     0.017233116
       359.00002       292.90142       98567.428       13395.181       2.7097500       2.7440000    -0.013500000       343.90700       2.0275347     0.018779038
       364.00000       292.90011       98558.162       13417.205       3.2922500       2.9200000     -0.12200000       343.86100       2.0101891     0.016879525
       369.00001       292.96125       98560.480       13477.595       5.1427500       1.9827500      0.42800000       343.64800       2.0194634     0.020389250
       374.00002       293.09715       98558.716       13616.813       4.3995000       1.5977500      0.49975000       344.12600       2.0070889     0.020104995
       379.00000       293.18639       98558.839       13712.708       2.4177500       3.0012500      0.45800000       344.03200       2.0522778     0.017120409
       384.00001       293.30949       98580.872       13818.405       3.5362500       2.2385000      0.62325000       343.60000       2.0306975     0.017918252
       389.00002       293.39152       98578.540       13923.951       3.2747500       2.5407500     -0.46275000       344.06500       2.0421366     0.019790251
       394.00000       293.41850       98544.243       13995.821       3.6770000       4.4115000     -0.35500000       343.22600       2.0256921     0.017593272
       400.00000       293.47849       98541.349       14130.094       2.6670000       4.7727500     -0.47425000       343.00100       2.0250483     0.016089982
       405.00002       293.54047       98547.087       14294.850       3.6915000       2.6772500    -0.052750000       343.81800       2.0414353     0.019801975
       409.99999       293.57435       98550.522       14406.342       3.5612500       2.6500000     -0.28275000       343.50500       2.0485005     0.018566455
       415.00000       293.61034       98577.892       14549.156       2.7507500       3.0670000      0.74675010       343.72400       2.0617099     0.017409745
       420.00002       293.60813       98581.083       14583.784       3.6020000       2.5967500      0.32125000       344.11100       2.0551089     0.020231745
       425.00003       293.58046       98558.526       14577.294       1.9542500       2.2047500      0.20725000       343.91200       2.0415721     0.016662117
       430.00000       293.52844       98558.003       14478.829       3.0197500       3.1615000     -0.60525000       343.87800       2.0601713     0.020686744
       435.00001       293.44202       98567.586       14254.843       3.5327500       3.0560000     0.046000000       343.54500       2.0344732     0.018400837
       440.00003       293.35527       98564.374       14080.429       2.5387500       2.5830000      0.39375000       343.52300       2.0420742     0.021971240
       445.00000       293.22941       98559.917       13831.124       2.5547500       2.4190000      0.29850000       343.99400       2.0300723     0.021718780
       450.00001       293.14540       98561.011       13668.412       2.1522500       1.7995000      -1.0977500       343.79300       2.0233617     0.018734848
       455.00003       293.05787       98552.131       13548.244       2.9165000       2.9812500     -0.21325000       343.77900       2.0076868     0.021864063
       460.00000       293.01006       98554.189       13439.540       2.8280000      0.61100000     0.077250000       344.29300       2.0097996     0.023121640
       465.00001       293.01149       98580.958       13358.553       2.4490000      0.74625000      0.30625000       344.26800       2.0532241     0.023716851
       470.00003       292.98163       98577.240       13288.992       4.3062500      0.72050010      0.64700000       344.33300       2.0138346     0.022221953
       475.00000       292.95818       98548.180       13227.301       5.4322500     0.081000000     -0.35850000       343.57800       2.0114606     0.019605730
       480.00001       292.93827       98547.203       13202.608       3.4360000     0.031000000      0.30975000       344.54600       2.0171718     0.014198720
       486.00002       292.91599       98548.557       13224.837       5.8602500       1.4680000     -0.27575000       343.99900       2.0269543     0.015413907
       490.99999       292.86698       98548.368       13212.276       4.4352500      0.33475000     -0.70825000       343.95600       2.0203286     0.018366927
       496.00001       292.82548       98568.162       13217.459       3.2487500      0.64300000      0.37800000       344.00000       1.9908652     0.017407442
       501.00002       292.74760       98569.024       13197.523       6.9077500     -0.34750000      0.26075000       344.00200       1.9994270     0.019276544
       505.99999       292.60934       98546.531       13133.005       5.1477500      0.45825000    -0.049000000       344.07000       2.0066690     0.019053725
       511.00000       292.52798       98548.669       13123.140       4.9782500       1.7872500     -0.44300000       343.63500       2.0686042     0.021036537
       516.00002       292.43880       98567.625       13119.524       4.1965000       1.7952500     0.078750010       343.62000       2.0200422     0.014962444
       520.99999       292.41513       98566.145       13162.476       4.1860000       1.2540000    -0.024750000       343.94100       2.0252396     0.015421214
       526.00000       292.45111       98560.311       13265.819       2.9942500       1.1852500      0.37875000       343.96800       2.0216294     0.016599591
       531.00002       292.44107       98561.276       13305.151       4.4815000      0.88450000     -0.12350000       343.20300       2.0221813     0.017210213
       535.99999       292.44858       98553.187       13349.260       4.5882500       1.4070000     -0.26325000       343.31400       2.0263646     0.015462442
       541.00000       292.45899       98554.762       13389.255       5.1467500       2.5207500     -0.40000000       343.25600       2.0485064     0.018112338
       546.00002       292.45259       98574.067       13390.946       3.2582500      0.72700010     0.061250000       343.73700       2.0066731     0.017450878
       550.99999       292.44267       98571.901       13414.899       4.5565000       1.2907500     -0.19500000       343.72800       2.0032467     0.020958643
       556.00000       292.46611       98553.002       13477.321       2.2195000       1.0435000      0.25300000       344.13800       2.0173644     0.020091784
       561.00001       292.43883       98554.568       13486.316       3.4390000      0.34175000      0.70800000       343.95800       2.0333318     0.018576971
       566.00003       292.36046       98561.495       13469.447       3.3860000      0.99000010     0.071750000       343.90800       1.9953311     0.019901858
       571.00000       292.31099       98558.687       13434.624       5.4690000       3.2142500     -0.11725000       343.47600       2.0019051     0.022924975
       577.00001       292.25185       98562.542       13365.183       4.7570000       2.1212500     -0.22275000       343.48300       2.0116030     0.018181812
       582.00002       292.20151       98560.103       13303.194       3.4270000       1.9527500     -0.50425000       343.26400       1.9895561     0.019115954
       586.99999       292.15057       98541.831       13219.049       2.9492500       2.6525000     -0.20725000       343.64600       1.9962885     0.019388303
       592.00001       292.08469       98553.338       13128.977       2.3602500      0.94775000      0.12250000       343.79300       2.0070715     0.017868525
       597.00002       292.04297       98560.360       13067.844       2.8515000       1.5602500     -0.17375000       343.87200       2.0034816     0.018214467
       601.99999       292.00016       98570.397       12992.235       3.4360000       2.2925000      0.35200000       344.00200       2.0035221     0.015790423
