MIRICO/SHELL project - Processed LDS file generated on
Fri Jul 07 22:52:23 2017
Time stamp for record start
05/10/2017  15:03:58.0000
Nb of points in the record
         944
Beam position index
       1.0000000
Beam angle (degrees)
      -18.440000
Open Path length (m)
       34.890000
****************** Temporal data record ************************
Elapsedtime_sec Temp_K Press_Pa Humidity_ppmv WindX_m/s WindY_m/s WindZ_m/s Speedofsound_m/s CH4vmr_ppmv CH4vmrerror_ppmv  
      0.00000000       290.53512       99620.459       8010.5817     -0.66975000       3.0905000     0.054000000       342.26700       2.0631389    0.0095953572
       5.0000131       290.58917       99620.355       8064.6096     -0.14400000       3.1152500     -0.15550000       342.42200       2.1320040    0.0085560716
       10.000026       290.60568       99620.398       8079.3829     0.087750000       2.9225000      0.23250000       343.37400       2.0604047    0.0096382069
       14.999999       290.63139       99622.504       8106.9859     -0.53675000       3.2460000     -0.54775010       341.86500       2.0736532    0.0085899720
       20.000012       290.66758       99619.274       8115.0629     -0.18175000       3.0180000     0.073250000       342.23600       2.0267206     0.011314143
       25.000025       290.77510       99613.176       8105.5531      0.60050000       3.5150000     0.060250000       342.50900       2.1609771    0.0098358786
       29.999998       290.75990       99607.690       8090.9078       1.1635000       3.1275000      0.46525000       342.28600       2.0180621     0.012195038
       35.000011       290.66169       99598.520       8056.5727     -0.72050010       2.3715000     -0.46275000       341.97400       2.0983738     0.010331174
       40.000024       290.63165       99590.623       8049.5939      0.29000000       2.3330000     -0.68800000       341.76700       2.0929688    0.0086870289
       44.999997       290.52030       99579.858       8036.4735       1.4022500       2.7412500     -0.10350000       342.31900       2.0515747     0.011011272
       50.000010       290.53233       99577.768       8047.2257     0.053750000       1.7110000     0.044750000       343.22100       2.0402112     0.011170400
       56.000018       290.69469       99576.302       8098.2269      0.38600000       2.0820000     -0.70100000       341.83800       2.1167163    0.0085915232
       60.999991       290.74650       99583.694       8127.7314      0.58875000       2.7105000     -0.49025000       341.55500       2.0793161    0.0091883929
       66.000004       290.79760       99604.072       8159.7823      0.35900000       2.8920000     -0.27875000       341.48100       2.1242488    0.0088047185
       71.000017       290.83915       99614.256       8188.2084       1.7537500       1.9187500     -0.29825000       342.33900       2.0967143    0.0099656318
       76.000030       290.83719       99626.686       8212.8422      0.25150000       2.0502500     -0.16450000       342.39700       2.0176333     0.015172896
       81.000003       290.87561       99630.183       8243.4322     -0.35950000       2.3537500      0.21075000       342.23200       2.0514294    0.0091770283
       86.000016       290.92091       99626.278       8268.0258    -0.034250000       2.4357500     0.096750010       342.08700       2.0541024    0.0097110573
       91.000029       291.00954       99625.393       8315.0302    -0.051750000       2.5770000     -0.45500000       341.34900       2.1019010     0.011065184
       96.000002       291.14932       99621.743       8387.7859      0.65175000       1.0817500    -0.040500000       342.60000       2.0923125    0.0078065925
       101.00002       291.20186       99616.877       8418.3606      0.18575000       2.0815000     -0.38925000       341.70000       2.1294762    0.0081868293
       106.00003       291.25440       99611.864       8449.4052       1.1377500       1.5752500     0.042750000       342.04600       2.0834180    0.0079080406
       111.00000       291.28712       99606.043       8457.3739      0.48400000       2.2875000     0.064000000       342.13000       2.0865146     0.011179613
       116.00001       291.25218       99595.346       8432.8842      0.57900010       1.7260000      0.23775000       341.83400       2.0772121    0.0094515586
       121.00003       291.24241       99591.257       8405.8737      0.16775000       2.2292500     -0.32750000       341.54500       2.1124232     0.015003263
       126.00000       291.29322       99587.116       8376.0425     -0.19825000       2.1982500      0.10250000       343.09800       2.0819509     0.010736116
       131.00001       291.21071       99591.495       8327.8663      0.66375010       1.8102500     -0.18500000       341.67500       2.1467656    0.0078578485
       136.00003       291.03569       99602.866       8258.2422      0.91600010       1.7112500      0.46575000       342.62600       2.0543762     0.012894452
       141.00000       290.90594       99610.800       8183.9085      -1.0052500      0.79950000     -0.17625000       342.98600       2.1121592    0.0082065839
       147.00001       290.67686       99627.305       8075.4116     -0.22800000       1.6720000     -0.16225000       343.20100       2.0933740    0.0096995650
       152.00002       290.63015       99628.708       8006.1305      -1.7587500       1.3975000      0.56225000       343.97000       2.0526647     0.011481107
       156.99999       290.58694       99630.862       7956.4546      -1.5567500       1.4422500    -0.042000000       342.16700       2.1017230    0.0099741595
       162.00001       290.61525       99631.774       7957.6978      -1.0765000       2.5492500      0.24275000       342.17900       2.0560655     0.011289370
       167.00002       290.60657       99630.882       7939.0067      -2.2885000       3.5042500     -0.63625000       342.20700       2.0438229     0.010712439
       171.99999       290.58559       99628.768       7916.7343      -1.2880000       3.8502500      0.11075000       342.23000       2.0706239     0.011195000
       177.00001       290.55124       99627.579       7892.5523    -0.095500010       1.5105000      0.74525000       342.90900       2.0990150    0.0078969596
       182.00002       290.53118       99619.164       7872.9504     -0.50700000       1.2342500      0.47075000       342.16300       2.0377646     0.012177933
       186.99999       290.50582       99605.927       7848.6433      -1.0810000       2.0482500      0.26050000       342.46400       2.0386767     0.014046906
       192.00000       290.39414       99584.204       7781.3029      -1.5102500       3.4782500     -0.20175000       341.24600       2.0927080    0.0082934282
       197.00002       290.37938       99576.339       7783.0152     -0.85175000       3.9352500     -0.31675000       341.24000       2.0151781     0.013958345
       201.99999       290.41987       99579.335       7844.8436      -1.0947500       2.8370000     -0.22825000       341.79900       2.0460935     0.010028230
       207.00000       290.43746       99582.871       7879.3277     -0.29550000       2.5360000     -0.27925000       342.46600       2.1130272    0.0073161797
       212.00002       290.52515       99600.376       7914.7978     -0.89950010       1.6575000     -0.34650000       341.56400       2.1131923    0.0090537193
       217.00003       290.60580       99611.590       8008.2865     -0.67800000       2.6965000     -0.17725000       341.51800       2.0868787     0.012321200
       222.00000       290.67416       99620.359       8124.0207     -0.40875000       3.8185000     -0.45200000       341.61800       2.1198763    0.0085908947
       227.00002       290.69870       99626.547       8238.6893     -0.30950000       2.5582500      0.37325000       341.93500       2.0858701    0.0092722819
       233.00002       290.77953       99630.717       8432.8571     -0.41150000       2.2525000     -0.18700000       342.33100       2.1459651    0.0096297350
       238.00000       290.81750       99631.526       8521.6502     -0.11775000       2.9510000     -0.94150010       341.52300       2.1017918     0.010318308
       243.00001       290.80030       99630.921       8491.1894      0.17000000       2.3200000     -0.29350000       341.81000       2.1146404    0.0083185822
       248.00002       290.80042       99625.553       8495.4047      0.72525000       1.9682500     -0.13125000       341.59300       2.0929451    0.0069191160
       253.00000       290.78630       99613.893       8489.3006       1.0692500       2.3360000    -0.073000010       342.15500       2.1349979    0.0074685643
       258.00001       290.79786       99603.868       8483.3543      0.17975000       2.3575000     0.018750000       342.21700       2.1004189    0.0084077176
       263.00002       290.83313       99583.595       8488.1324       1.8665000       2.0972500    -0.052500000       342.36500       2.0720713    0.0094481910
       267.99999       290.85315       99576.323       8473.5609       1.6677500       3.2940000     -0.28925000       342.06700       2.0334022     0.011783699
       273.00001       290.87604       99577.983       8412.9056      0.81225000       1.9882500     -0.22975000       342.04600       2.1063271    0.0080656784
       278.00002       290.90633       99579.486       8406.1846      0.55875000       1.6895000     -0.55850010       341.31400       2.0986624    0.0075213638
       282.99999       290.93458       99587.592       8431.5240       1.1262500       1.2447500    -0.023000000       341.37000       2.0726332     0.011998105
       288.00001       290.95468       99596.729       8440.2373    -0.026250000       1.1120000      0.41375000       343.04200       2.1141438    0.0087331865
       293.00002       291.01894       99611.112       8518.3123     -0.10875000       2.0752500    -0.043750000       342.12600       2.1331903    0.0083671979
       297.99999       291.01482       99617.809       8515.0073      0.24825000       1.8087500    -0.051250000       341.81300       2.0852569    0.0098937835
       303.00001       290.91805       99626.951       8408.7236     -0.50625000       2.1512500     0.056000000       341.84200       2.0982956     0.010639097
       308.00002       290.88951       99628.412       8368.9307     -0.59900000       1.5775000      0.26100000       342.17300       2.1677943    0.0087043345
       312.99999       290.86762       99619.260       8334.4393     -0.34025000      0.95300010      0.20075000       342.54900       2.0782338     0.011967268
       318.00001       290.83894       99610.073       8291.3809      -1.0337500       1.3172500     -0.16175000       341.33100       2.0348635     0.012391527
       324.00001       290.86892       99587.485       8284.1051     -0.59600000       1.7167500     0.093000000       342.26300       2.0713625     0.010939664
       329.00003       290.85132       99580.992       8258.7998     -0.28725000       1.3352500     -0.43350000       342.12900       2.1460174    0.0089055712
       334.00000       290.75348       99578.133       8182.5398     -0.92200010       2.3750000     -0.18975000       341.82500       2.1142452    0.0090934488
       339.00001       290.73040       99578.571       8151.3906     -0.74775000      0.70125000      0.38925000       342.42600       2.1134254    0.0089908077
       344.00003       290.71730       99590.597       8129.8293     -0.37675000       1.2240000     -0.25750000       341.62000       2.0994011     0.010260209
       349.00000       290.74843       99598.579       8145.5499     -0.17300000       2.3395000     -0.11925000       341.91600       2.1025898    0.0085497586
       354.00001       290.85653       99607.179       8200.0015     -0.57475000       1.5747500     -0.10675000       341.90100       2.1406975    0.0084786823
       359.00002       290.92682       99612.773       8250.7768     -0.12150000       1.4897500     -0.29200000       343.02500       2.1025343    0.0080707915
       364.00000       291.03998       99621.690       8385.1157     -0.96675000       2.4490000      0.15550000       342.79800       2.1124021    0.0088176268
       369.00001       291.07874       99622.140       8402.3255     -0.16550000       1.9520000     -0.24500000       341.73400       2.1590076    0.0096562056
       374.00002       291.05658       99616.223       8336.6708      0.11700000       2.1937500    -0.082250010       342.01900       2.1303345    0.0093861894
       379.00000       291.05286       99608.046       8307.7666     -0.92850010       1.8525000      0.53875010       342.39200       2.1291850    0.0095641098
       384.00001       291.01774       99589.913       8212.3630     -0.24000000       1.2967500      0.11875000       342.94900       2.1312182    0.0090348167
       389.00002       290.98795       99580.824       8170.4061     -0.42200000       2.1002500     -0.20200000       342.29500       2.1389943     0.011390673
       394.00000       290.96248       99565.507       8162.9721      0.50975000       1.0472500    -0.055750000       341.81100       2.0556617     0.012481930
       399.00001       290.94284       99567.494       8182.1350    -0.028000000      0.67200010      0.42125000       344.04000       2.0570760     0.010186059
       404.00002       290.90519       99588.886       8250.7307      0.80925010      0.61325000      0.10200000       343.60600       2.1241581    0.0087711497
       408.99999       290.88909       99598.934       8267.8622      0.81425010       1.5420000    -0.025000000       342.17700       2.0839909    0.0073817558
       415.00000       290.88877       99619.649       8314.2634       1.0960000       1.6480000     -0.78200010       342.30300       2.0944486    0.0096519106
       420.00002       290.90501       99626.624       8303.7492      0.83550010       1.4357500      0.18225000       343.17200       2.1732590    0.0098513618
       425.00003       290.94284       99623.529       8220.8298      0.71175000       1.4622500    -0.081500000       342.60000       2.1232701    0.0077949920
       430.00000       290.96306       99618.675       8167.9565      0.98475000       1.1635000      0.12450000       343.05900       2.1164786    0.0098426802
       435.00001       291.02178       99609.989       8120.1582      0.19425000       1.3545000    -0.055000000       341.78000       2.1086688    0.0082006691
       440.00003       291.00312       99600.828       8056.4325    -0.033500000      0.96875010      0.30650000       342.78700       2.1523991    0.0074637270
       445.00000       290.91738       99579.931       7951.8779      0.80750010       1.8380000     -0.55550000       341.62100       2.1311916    0.0095281983
       450.00001       290.87702       99575.137       7919.6335       1.3942500       2.2615000     -0.16300000       342.15400       2.1828384     0.011972444
       455.00003       290.81264       99575.647       7902.5526       1.0840000       1.3845000     0.090000000       342.12200       2.1423793    0.0082430880
       460.00000       290.76828       99581.846       7915.5337      0.55550000      0.81275000      0.73925010       343.14400       2.1251104    0.0079375023
       465.00001       290.75725       99603.067       8003.7794      0.34475000       1.2945000      0.26950000       343.10100       2.1470548    0.0083353017
       470.00003       290.73714       99611.876       8042.4990      0.16500000       1.0052500     -0.23175000       341.66500       2.1400405    0.0095012329
       475.00000       290.71161       99622.368       8089.2885      0.14750000       1.1167500    -0.064250000       342.43200       2.0766049    0.0098674207
       480.00001       290.68164       99623.158       8091.3738      0.40000000       1.6725000     -0.32625000       341.71400       2.0952286    0.0075510326
       485.00002       290.65819       99612.049       8056.4996      0.29450000       1.1385000     -0.31150000       342.51300       2.0643203    0.0077005211
       490.00000       290.63839       99608.166       8036.8828      0.51300000       1.4407500      0.29375000       343.05000       2.0948348    0.0075052534
       495.00001       290.60068       99600.610       7985.0899      0.28150000       1.0215000      0.13075000       342.53300       2.1020371     0.010590192
       500.00002       290.58697       99597.932       7962.5808      0.36325000      0.77150010     -0.23275000       342.51200       2.0741733    0.0084857661
       505.99999       290.59058       99598.413       7955.4288      0.26025000      0.45350000     -0.17425000       342.20600       2.0843901    0.0094663303
       511.00000       290.60921       99602.134       7958.1643      0.44750000      0.31950000    -0.072750000       342.70400       2.0126018     0.011580919
       516.00002       290.62861       99611.385       7951.5128      0.79250000      0.47675000      0.38550000       343.89600       1.9866277     0.015200364
       520.99999       290.68570       99611.696       8000.9114      0.84825000       1.5040000      0.16200000       343.34800       2.0637899    0.0093404525
       526.00000       290.79531       99612.510       8103.0106      0.63825010       2.0672500     0.065500010       342.33300       1.9388839     0.013732550
       531.00002       290.84618       99608.882       8157.9824     0.059000000       2.0460000     -0.40750000       342.18000       2.0157400     0.014253960
       536.00003       290.87861       99598.120       8225.4463      0.36325000       2.6077500      -1.0382500       342.15100       2.0490336    0.0092592874
       541.00000       290.95802       99588.207       8293.8101      0.81675000       3.4580000     -0.38875000       342.55700       2.1089995     0.012817522
       546.00002       291.04689       99573.634       8359.9708     0.071750000       2.9050000      0.32375000       342.87400       2.0477260     0.012821852
       551.00003       291.08830       99572.220       8365.0566      0.59250000       2.7675000      0.12450000       342.52400       2.0734456    0.0095901680
       556.00000       291.17241       99570.692       8376.1592       1.7660000       2.5540000    -0.058000000       342.24900       2.0286318     0.012455848
       561.00001       291.16763       99578.890       8332.3910       1.0642500       1.3935000      0.24800000       343.16700       2.0765646    0.0088885817
       566.00003       291.07727       99606.747       8199.9063       1.2762500      0.46975000      0.97700010       343.52600       2.0286088     0.010572911
       571.00000       290.99039       99612.262       8106.0397       1.6130000       2.5335000     -0.16150000       342.34000       2.0633261    0.0090790043
       576.00001       290.84999       99614.775       7999.8241       1.4770000       1.6217500     -0.11425000       342.13800       2.0576873     0.013016198
       581.00003       290.79747       99608.645       7936.5967       1.1560000       2.0337500    -0.066500000       342.65100       2.1503211     0.011218529
       586.00000       290.73652       99586.086       7872.6868      0.39550000       2.0175000      0.32075000       343.47700       2.1426059     0.014805644
       591.00001       290.72335       99577.763       7833.5545      0.61325000       3.0740000     -0.70625000       342.84800       2.6565126    0.0094853354
       597.00002       290.81223       99566.872       7840.3284       1.7062500       2.3107500     -0.36275000       342.09100       5.3749801     0.012328387
       601.99999       290.76983       99576.508       7809.5910      0.26825000       2.4205000     -0.49275000       342.51800       4.1840874     0.013041292
