MIRICO/SHELL project - Processed LDS file generated on
Fri Jul 07 22:48:37 2017
Time stamp for record start
05/10/2017  15:03:58.0000
Nb of points in the record
         944
Beam position index
       2.0000000
Beam angle (degrees)
      -8.6100000
Open Path length (m)
       64.850000
****************** Temporal data record ************************
Elapsedtime_sec Temp_K Press_Pa Humidity_ppmv WindX_m/s WindY_m/s WindZ_m/s Speedofsound_m/s CH4vmr_ppmv CH4vmrerror_ppmv  
      0.00000000       290.53512       99620.459       8010.5817     -0.74500010       3.1187500     -0.55200000       341.85300       1.9560385    0.0061196345
       5.0000131       290.58917       99620.355       8064.6096     -0.48625000       2.3505000     -0.22375000       342.40200       1.9951918    0.0067019027
       10.000026       290.60568       99620.398       8079.3829      0.77850000       3.0092500      0.48375000       343.32000       1.9717738    0.0073848704
       15.999994       290.63765       99622.060       8109.5064      0.45875000       3.7127500     -0.48425000       341.29200       1.9735181    0.0083499009
       21.000007       290.67629       99618.326       8115.3160      0.54250000       3.6830000     -0.22925000       342.25700       1.9886805    0.0062604612
       26.000020       290.77599       99612.177       8103.2246      0.68800000       2.8125000     -0.15550000       341.86000       2.0014918    0.0079256298
       30.999993       290.75096       99606.446       8087.0806      0.98750010       3.2310000     -0.31325000       342.15800       2.0007372    0.0055630701
       36.000006       290.65568       99596.940       8054.5769     -0.41100000       2.3465000     -0.75025000       341.97500       2.0187651    0.0085864897
       41.000019       290.62564       99589.046       8049.0965       1.0762500       2.7525000     -0.59500000       341.70700       1.9540638    0.0064685676
       45.999992       290.51763       99579.143       8037.2739      0.86250000       3.3102500      0.36375000       342.51300       1.9883561    0.0064745410
       51.000005       290.54234       99577.797       8051.4043      0.13900000       1.1300000      0.43925000       343.54600       1.9807839    0.0058688879
       56.000018       290.69469       99576.302       8098.2269      0.52600000       2.7947500     -0.12275000       342.33600       2.0241859    0.0073738800
       60.999991       290.74650       99583.694       8127.7314       1.6237500       2.7370000    -0.070000000       341.86300       2.0004831    0.0078046643
       66.000004       290.79760       99604.072       8159.7823      0.48275000       2.6745000     -0.46050000       341.64800       2.0084747    0.0076217865
       71.000017       290.83915       99614.256       8188.2084      0.94575010       2.5230000    -0.056500000       342.25000       2.0234434    0.0073933554
       76.000030       290.83719       99626.686       8212.8422      0.22675000       1.7937500     -0.12350000       342.62000       2.0377245    0.0085930617
       81.000003       290.87561       99630.183       8243.4322     -0.63775000       2.6322500     -0.13025000       341.95100       1.9926401    0.0067820836
       86.000016       290.92091       99626.278       8268.0258    -0.063750010       2.5687500     -0.27750000       341.53500       2.0393230    0.0078883525
       91.000029       291.00954       99625.393       8315.0302     -0.13550000       2.7515000     -0.36375000       341.32900       1.9787089    0.0071190474
       96.000002       291.14932       99621.743       8387.7859      0.58350000       1.2327500      0.15675000       343.01600       2.0360314    0.0071399786
       101.00002       291.20186       99616.877       8418.3606    -0.075750000       1.5647500     -0.13375000       342.23600       2.0418099    0.0075489405
       107.00002       291.26295       99610.794       8452.4986       1.2177500       2.2132500     -0.18750000       341.41000       2.0681145    0.0087216833
       112.00000       291.26004       99600.397       8446.8641      0.59850000       1.9337500      0.21525000       342.18800       1.9857209    0.0064614274
       117.00001       291.25022       99594.330       8428.3292      0.65350000       1.8012500      0.71125000       341.76100       1.9966664    0.0064060034
       122.00002       291.31489       99587.163       8404.0728      0.21725000       2.3415000    -0.027250000       341.52300       2.0574365    0.0092878510
       127.00000       291.28164       99587.598       8367.5684     0.024750000       1.6827500     -0.58575000       342.12600       2.0362745     0.010389903
       132.00001       291.18683       99592.963       8316.4981      0.38375000       1.8342500    -0.017000000       341.93400       2.0283747    0.0094173695
       137.00002       291.01087       99604.344       8244.1242      0.23225000       1.2907500      0.51000010       343.09900       1.9677385    0.0056093872
       141.99999       290.87829       99612.550       8167.9285     -0.38350000       1.2712500    -0.012250000       342.55700       1.9829787    0.0080681038
       147.00001       290.67686       99627.305       8075.4116     -0.36075000       2.2500000     0.096500000       343.50000       1.9872471    0.0069651682
       152.00002       290.63015       99628.708       8006.1305      -2.4040000       1.4940000     -0.67400000       342.06900       1.9856887    0.0059116067
       156.99999       290.58694       99630.862       7956.4546     -0.79500000       1.5477500      0.10675000       342.38300       2.0202239    0.0067383813
       162.00001       290.61525       99631.774       7957.6978     -0.56825000       1.3455000      0.66625010       342.33700       1.9895366    0.0068658983
       167.00002       290.60657       99630.882       7939.0067      -1.6850000       4.0927500     -0.55275010       342.60500       1.9545335    0.0064852570
       171.99999       290.58559       99628.768       7916.7343     -0.74550000       3.7587500    -0.085750010       341.85600       2.0365041    0.0076727337
       177.00001       290.55124       99627.579       7892.5523     -0.68325000       1.0622500      0.12675000       342.88200       2.0308957    0.0073056392
       182.00002       290.53118       99619.164       7872.9504     -0.51275000       1.8232500      0.36825000       342.48100       1.9870216    0.0067591253
       186.99999       290.50582       99605.927       7848.6433      -1.1867500       4.0172500     -0.48200000       341.86600       2.0100790    0.0066167647
       192.00000       290.39414       99584.204       7781.3029      -1.2430000       3.8292500     -0.12075000       341.30400       2.0468504    0.0092505062
       198.00001       290.38103       99575.683       7787.3805     -0.82300000       3.9925000     -0.42500000       341.22700       1.9872964    0.0073064748
       203.00003       290.42141       99579.648       7850.7799     -0.77750000       2.8890000      0.19425000       342.06500       1.9821332    0.0070493916
       208.00000       290.44393       99584.169       7887.6718     -0.89950010       3.0032500    -0.016500000       341.87100       1.9867978    0.0065843533
       213.00001       290.54227       99602.814       7931.7250     -0.75650010       1.6230000      0.44250000       342.22300       1.9488082    0.0068950965
       218.00002       290.62046       99613.539       8029.6483     -0.90625010       2.8842500     0.072500010       341.47700       1.9988992    0.0065569903
       223.00000       290.66669       99621.734       8163.5539     -0.57125000       2.8160000     -0.63875000       341.42900       2.0034893    0.0065348804
       228.00001       290.70677       99627.503       8257.9388     -0.77600000       2.8135000      0.83575000       341.90700       2.0365063    0.0071154819
       233.00002       290.77953       99630.717       8432.8571      0.24150000       1.9637500      0.36400000       342.03900       2.0504677    0.0094762857
       238.00000       290.81750       99631.526       8521.6502     0.076000010       2.6852500     -0.68775000       341.79200       2.0252092    0.0057029599
       243.00001       290.80030       99630.921       8491.1894     -0.23350000       1.9995000   -0.0047500000       341.79700       2.0002512    0.0083499809
       248.00002       290.80042       99625.553       8495.4047      0.66550000       1.8242500    -0.065250000       341.63800       2.0384314     0.010422098
       253.00000       290.78630       99613.893       8489.3006       1.2017500       2.3740000      0.41600000       342.48500       2.0380382    0.0077558723
       258.00001       290.79786       99603.868       8483.3543      0.25200000       2.0920000      0.47775000       341.72800       2.0355591    0.0074151557
       263.00002       290.83313       99583.595       8488.1324       1.2422500       2.0185000     -0.35575000       341.34700       2.0283526    0.0099585782
       267.99999       290.85315       99576.323       8473.5609       2.1247500       2.5402500      0.18875000       342.18800       2.0481067    0.0095987329
       273.00001       290.87604       99577.983       8412.9056      0.29750000       1.8105000      0.28225000       342.15500       2.0442996    0.0070315429
       278.00002       290.90633       99579.486       8406.1846      0.63550000       1.5982500     -0.42875000       341.30300       2.0483703    0.0083032711
       282.99999       290.93458       99587.592       8431.5240      0.96625010       1.3837500     -0.19400000       341.51100       2.0221561    0.0071406092
       289.00000       290.95866       99598.703       8442.8744    -0.019500000       1.0550000      0.41950000       342.62400       2.0047614    0.0080912021
       294.00001       291.02107       99612.649       8521.0840     -0.14500000       1.9092500  -0.00025000000       342.33800       1.9814757    0.0065741872
       299.00003       291.00956       99618.852       8509.2005     0.021000000       1.6850000      0.20550000       341.95800       2.0096321    0.0072008606
       304.00000       290.91135       99627.734       8399.9848     -0.35825000       2.2910000    0.0065000000       341.98900       2.0020475    0.0070329898
       309.00001       290.88527       99627.968       8362.1383     -0.80925010       1.0332500      0.38325000       343.03600       2.0072028    0.0087758235
       314.00003       290.86086       99617.632       8325.0590     -0.87250010       1.3075000     0.077000010       342.28600       2.0170551    0.0077576211
       319.00000       290.83474       99607.922       8283.9171     -0.65600000       1.6602500     -0.31975000       341.29400       2.0362781    0.0087745659
       324.00001       290.86892       99587.485       8284.1051     -0.54300000       1.7105000     -0.28525000       341.53200       1.9828107    0.0051173187
       329.00003       290.85132       99580.992       8258.7998     -0.86400000       2.0395000     -0.12575000       341.92700       2.0215419    0.0074949324
       334.00000       290.75348       99578.133       8182.5398     -0.58350000       2.0787500     -0.36525000       341.45100       2.0082565    0.0079313169
       339.00001       290.73040       99578.571       8151.3906     -0.60000000      0.60950010      0.34025000       343.10400       2.0132977    0.0066256357
       344.00003       290.71730       99590.597       8129.8293     -0.74575000       1.2540000      0.10325000       341.72200       1.9717152    0.0058093276
       349.00000       290.74843       99598.579       8145.5499     -0.27500000       2.1895000     -0.19100000       341.59100       2.0267640    0.0086165055
       354.00001       290.85653       99607.179       8200.0015     -0.54750000       1.6107500    -0.029500000       342.41100       2.0107113    0.0063015688
       359.00002       290.92682       99612.773       8250.7768     -0.19525000       1.8730000      0.13100000       343.42500       2.0427761    0.0073050027
       364.00000       291.03998       99621.690       8385.1157     -0.79275010       1.8675000     -0.23650000       342.32100       2.0162493    0.0077913261
       369.00001       291.07874       99622.140       8402.3255     -0.13300000       2.1720000      0.12900000       342.05900       2.0471009     0.011214767
       375.00002       291.05683       99614.884       8331.9791     -0.71925000       1.8495000      0.33125000       342.16500       2.0675891     0.014432640
       379.99999       291.05063       99605.966       8300.3550     -0.43150000       1.7785000      0.11450000       342.68700       2.0492525     0.010725916
       385.00000       291.01179       99587.899       8201.9250    -0.020500000       1.7257500     -0.12800000       341.92300       1.9998506    0.0066753199
       390.00002       290.98199       99579.302       8165.0791    -0.079500000       1.9487500     -0.50775000       341.92800       2.0525190    0.0092522952
       395.00003       290.95854       99565.116       8165.0285      0.38750000      0.96850000     -0.14700000       341.82200       2.0424436     0.011230098
       400.00000       290.93892       99569.073       8188.6282     -0.24225000      0.75850000      0.25175000       343.52100       2.0254941    0.0065627947
       405.00002       290.90097       99590.884       8254.8495      0.66650000      0.98550000      0.17625000       343.65800       2.0162755    0.0091873779
       410.00003       290.88737       99600.963       8270.2533       1.2502500       1.7150000     -0.43125000       342.01800       1.9982077    0.0078350971
       415.00000       290.88877       99619.649       8314.2634       1.0207500       1.4607500     -0.35800000       342.70100       2.0397197    0.0090306318
       420.00002       290.90501       99626.624       8303.7492      0.31650000       1.2090000      0.36475000       343.40300       2.0114400    0.0069977489
       425.00003       290.94284       99623.529       8220.8298       1.5967500       1.9692500      0.21650000       342.96900       2.0165598     0.011328181
       430.00000       290.96306       99618.675       8167.9565      0.73625000       1.0117500   -0.0075000000       343.32800       1.9571618    0.0079603195
       435.00001       291.02178       99609.989       8120.1582    -0.034750000       1.9387500      0.27525000       342.18100       1.9809511    0.0070727541
       440.00003       291.00312       99600.828       8056.4325     0.065000010       1.3605000      0.13875000       342.50700       2.0316929    0.0097547929
       445.00000       290.91738       99579.931       7951.8779      0.87775000       1.6822500     -0.29425000       341.60800       2.0022809    0.0082732762
       450.00001       290.87702       99575.137       7919.6335       1.5815000       2.0290000    -0.051750000       341.81100       2.0012386    0.0060701001
       455.00003       290.81264       99575.647       7902.5526       1.2035000       1.3915000    -0.024250000       342.31700       1.9504158    0.0071892830
       460.00000       290.76828       99581.846       7915.5337      0.67550000      0.80175010      0.77200000       343.35600       2.0364400    0.0064028847
       466.00001       290.75321       99605.039       8012.1720      0.31525000      0.87900010    -0.041500000       342.43300       1.9788191    0.0054160788
       471.00002       290.73315       99613.323       8049.2714      0.33600000      0.82550000     -0.18350000       341.73200       1.9783150    0.0067678494
       475.99999       290.70563       99623.020       8091.6879      0.41200000       1.1125000     -0.18025000       342.49700       2.0537232     0.013970468
       481.00001       290.67563       99622.575       8088.8230      0.36525000       1.3647500     -0.38225000       341.79900       2.0055905     0.011959568
       486.00002       290.65423       99611.270       8053.1761      0.45025000       1.1147500     -0.22925000       342.60500       2.0202689     0.010426297
       490.99999       290.63444       99607.393       8032.0608     0.046750000      0.93300000      0.53150000       343.45000       1.9684585    0.0078073805
       496.00001       290.59693       99599.875       7979.6894     0.087000000      0.82675000     -0.16200000       341.84700       2.0079755    0.0085282420
       501.00002       290.58573       99597.696       7959.4247      0.25725000      0.74650000     -0.13525000       342.09100       2.0531109     0.011389200
       505.99999       290.59058       99598.413       7955.4288      0.30350000      0.54475000     -0.33700000       342.12000       1.9911014    0.0061589110
       511.00000       290.60921       99602.134       7958.1643      0.34425000      0.23425000      0.10250000       342.93900       1.9735763    0.0066223618
       516.00002       290.62861       99611.385       7951.5128       1.0557500      0.38000000      0.47800000       343.31000       1.9737433    0.0072824514
       520.99999       290.68570       99611.696       8000.9114      0.87075010       1.9350000      0.14825000       343.03300       2.0118838    0.0096579767
       526.00000       290.79531       99612.510       8103.0106      0.65225010       2.4782500     -0.21250000       342.34000       1.9761264    0.0076117533
       531.00002       290.84618       99608.882       8157.9824      0.17175000       2.7227500     -0.19500000       342.53000       1.9863877     0.010074772
       536.00003       290.87861       99598.120       8225.4463      0.16375000       2.4867500     -0.22425000       342.28800       2.0221732     0.011605347
       541.00000       290.95802       99588.207       8293.8101      0.86475000       3.0130000    -0.082500000       342.82900       1.9857270    0.0071009751
       546.00002       291.04689       99573.634       8359.9708     -0.55400000       2.5107500      0.66225000       343.51000       1.9555429    0.0059366371
       551.00003       291.08830       99572.220       8365.0566      0.44375000       4.1337500     -0.20500000       342.33100       2.0186397     0.012164851
       557.00000       291.17549       99571.734       8370.8350       2.1460000       2.5620000     -0.36825000       342.60600       1.9683562    0.0074858533
       562.00001       291.12908       99597.905       8272.2339      0.78950010       1.0610000      0.62425010       343.95700       1.9313676    0.0064644947
       567.00002       291.06186       99608.342       8181.4331       1.1162500       1.9015000      0.31775000       343.38100       2.0262733     0.013527671
       572.00000       290.90970       99614.359       8061.9680      0.99375000       2.6485000      0.43950000       342.59100       1.9774764    0.0090291588
       577.00001       290.83752       99614.140       7985.9037       1.5947500       2.0280000     0.067250010       342.27200       1.9520298    0.0072653869
       582.00002       290.78992       99606.532       7925.8513       1.0752500       2.1042500     -0.52575000       342.21600       2.0854881     0.011190200
       586.99999       290.73085       99584.228       7863.1657      0.59025000       1.1435000     -0.20675000       342.97600       2.2321118    0.0069350005
       592.00001       290.72528       99576.388       7828.2594      0.35550000       1.6887500    -0.039000000       343.11800       2.5257659    0.0083608899
       597.00002       290.81223       99566.872       7840.3284      0.95650010       2.4205000      0.24700000       342.32500       2.6482170    0.0071273635
       601.99999       290.76983       99576.508       7809.5910      0.45600000       2.4785000     -0.10675000       342.73900       3.3418200    0.0078298855
