MIRICO/SHELL project - Processed LDS file generated on
Sat Jul 08 20:50:55 2017
Time stamp for record start
05/10/2017  15:03:54.0001
Nb of points in the record
         945
Beam position index
       3.0000000
Beam angle (degrees)
     -0.92900000
Open Path length (m)
       44.550000
****************** Temporal data record ************************
Elapsedtime_sec Temp_K Press_Pa Humidity_ppmv WindX_m/s WindY_m/s WindZ_m/s Speedofsound_m/s CH4vmr_ppmv CH4vmrerror_ppmv  
      0.00000000       290.58439       99620.412       8016.2167     -0.97600010       2.4030000     -0.11025000       342.64100       2.0241213    0.0098510295
       4.9999729       290.52909       99620.471       8012.3851     0.048250000       2.9152500     -0.30125000       341.90400       2.0184369    0.0083194225
       9.9999860       290.59147       99620.362       8067.6571     -0.22650000       1.6202500      0.68775000       342.81000       2.0488050    0.0085047976
       14.999999       290.61049       99620.409       8082.1985       1.1917500       2.4940000      0.20975000       343.07200       2.0545828    0.0073785018
       19.999972       290.63765       99622.060       8109.5064      0.47650000       2.6000000   -0.0042500000       341.76300       1.9832596    0.0081833162
       24.999985       290.67629       99618.326       8115.3160      0.58125000       3.7975000     -0.57275000       342.18600       2.0312637    0.0083340082
       29.999998       290.77599       99612.177       8103.2246      0.47100000       3.4152500     -0.18850000       341.29800       2.1165724     0.013640810
       34.999971       290.75096       99606.446       8087.0806       1.8075000       3.4110000      0.17775000       342.64400       2.0380543    0.0089374360
       39.999984       290.65568       99596.940       8054.5769     -0.81825010       3.0087500     -0.22800000       342.17300       2.0383686    0.0098552972
       44.999997       290.62564       99589.046       8049.0965      0.83600000       3.2940000     -0.51375000       341.75800       2.0530624    0.0080247683
       49.999970       290.51763       99579.143       8037.2739      0.75025000       2.2915000     -0.14450000       342.63200       2.0639637     0.011962061
       54.999983       290.54234       99577.797       8051.4043      0.33900000       1.6737500      0.34275000       343.72400       2.0595532    0.0085540714
       59.999996       290.69469       99576.302       8098.2269      0.47225000       2.7060000    -0.011000000       342.71100       2.0614311    0.0082492414
       64.999969       290.74650       99583.694       8127.7314       1.1582500       3.0250000     -0.20650000       341.82900       2.0315860    0.0076213431
       70.999977       290.80693       99606.218       8165.5794      0.28900000       2.6002500     -0.20200000       341.82900       2.0466145    0.0095978476
       75.999990       290.81530       99620.358       8189.6881      0.30100000       2.9100000      0.50175010       342.96100       2.0734388    0.0073186128
       81.000003       290.84389       99627.777       8218.8127      0.65875010       1.8267500      0.23525000       342.18700       1.9860267    0.0075619089
       85.999976       290.88477       99630.294       8249.7727      0.10350000       2.6137500      0.29475000       342.03300       2.0900150    0.0093303061
       90.999989       290.93656       99626.205       8276.5128     0.021500000       1.8762500     -0.26850000       341.85700       2.0732831    0.0092216250
       96.000002       291.03038       99625.060       8325.8085     -0.20225000       2.5565000     -0.35925000       341.36400       2.0355698    0.0078812539
       100.99998       291.16182       99620.866       8394.9478      0.42875000       2.6185000      0.17975000       342.08700       2.0916722    0.0078185060
       105.99999       291.21013       99615.671       8429.5585      0.51325010       1.7962500     -0.39600000       342.23800       2.0919525    0.0095292860
       111.00000       291.26295       99610.794       8452.4986      0.99175010       2.3155000     -0.32750000       341.54000       2.0551170    0.0098599671
       115.99997       291.26004       99600.397       8446.8641      0.96775010       1.7057500    -0.088750000       342.38200       2.1062203     0.013862536
       120.99999       291.25022       99594.330       8428.3292      0.89275000       2.2937500      0.25475000       342.00400       2.0966045     0.013350026
       126.00000       291.31489       99587.163       8404.0728     -0.23725000       2.5822500     -0.55450000       341.57400       2.0433385    0.0097083817
       130.99997       291.28164       99587.598       8367.5684     -0.10900000       2.3227500     0.022750000       342.32500       2.0166869    0.0079407023
       135.99999       291.18683       99592.963       8316.4981     -0.13575000       1.8897500      0.18525000       342.21400       2.0348107    0.0075956919
       141.00000       291.01087       99604.344       8244.1242     -0.19350000       1.4682500      0.73950000       343.40700       2.0550453    0.0086391061
       145.99997       290.87829       99612.550       8167.9285     -0.53000000       1.2842500    -0.073250000       342.84200       2.0536149     0.012063937
       150.99999       290.67686       99627.305       8075.4116     -0.60825000       1.6057500      0.36150000       343.57000       2.0440087    0.0078701129
       156.00000       290.63015       99628.708       8006.1305      -1.2410000       1.3497500      0.46100000       343.44600       1.9688743    0.0078985777
       162.00001       290.58135       99631.141       7949.0474     -0.96775010       1.1895000     0.093250010       342.27400       2.0810132    0.0082171949
       166.99998       290.61450       99631.693       7954.2480      -2.0780000       1.2555000     -0.31025000       342.20900       1.9977941    0.0085977179
       171.99999       290.60336       99630.557       7934.8375      -1.4112500       4.0240000      0.29075000       343.35000       2.0540874    0.0091601818
       177.00001       290.56709       99631.551       7908.3138     -0.54100000       3.3877500     -0.49525000       341.47600       2.0228814    0.0074744103
       181.99998       290.54725       99626.203       7888.6231     -0.50325000       1.4905000      0.56300000       342.93200       2.0367761    0.0065487748
       186.99999       290.53813       99613.931       7869.0334      -1.2190000       1.0160000      0.10450000       343.18700       2.0466740     0.013217961
       192.00000       290.49650       99603.805       7843.4460     -0.82775000       4.6405000     -0.72875010       341.38400       2.0658868    0.0093531148
       196.99998       290.38812       99582.020       7778.9638     -0.85725000       3.0602500    -0.015000000       341.74000       2.0289603    0.0079592942
       201.99999       290.38103       99575.683       7787.3805     -0.94000010       3.6142500     -0.39350000       341.80000       2.0042577    0.0073276092
       207.00000       290.42141       99579.648       7850.7799     -0.68450000       3.4180000    -0.054500000       341.55500       2.0316362    0.0077251187
       211.99998       290.44393       99584.169       7887.6718      -2.2442500       3.4722500      0.39200000       341.51600       2.0619524     0.012659222
       216.99999       290.54227       99602.814       7931.7250     -0.68100010       1.9217500      0.40725000       342.12700       2.0602618     0.010275479
       222.00000       290.62046       99613.539       8029.6483      -1.1940000       2.6702500    -0.036500000       342.07100       2.0934103    0.0081020877
       226.99998       290.66669       99621.734       8163.5539     -0.44000000       2.6157500     -0.53550000       341.47800       2.0029517    0.0076975400
       231.99999       290.70677       99627.503       8257.9388      0.68850000       2.8000000      0.28150000       341.85600       2.0526937     0.010605023
       237.00000       290.77953       99630.717       8432.8571    -0.096250010       3.0617500     -0.83375010       342.06100       2.1150846     0.013776404
       241.99997       290.81750       99631.526       8521.6502    -0.025500000       2.8247500     -0.60150000       341.70800       2.0730832    0.0089635244
       246.99999       290.80030       99630.921       8491.1894     0.025250000       1.9827500    -0.012500000       342.01100       2.0531021    0.0066855273
       253.00000       290.80044       99624.032       8495.6659      0.61100000       2.0305000     0.063000000       341.88900       2.0837030     0.010052656
       258.00001       290.78762       99611.986       8488.1766     -0.15050000       2.5227500      0.18675000       342.89300       2.0723433    0.0086395495
       262.99998       290.80166       99601.716       8482.0657      0.76150010       2.3625000     -0.28800000       341.30800       2.1045199     0.011005503
       267.99999       290.83710       99581.639       8486.1107       1.1042500       2.1107500     -0.30850000       342.23700       2.0373831    0.0088758688
       273.00001       290.85720       99575.620       8469.3059      0.99725000       2.2735000      0.89125000       342.58800       2.0589418    0.0083410146
       277.99998       290.88210       99577.984       8409.9326      0.98150000       2.6985000    -0.099750000       342.05600       2.0873837     0.010093417
       282.99999       290.91238       99580.237       8407.2883      0.68600000       1.5340000     -0.48400000       341.31300       2.0631723    0.0087363996
       288.00001       290.93862       99589.321       8432.6711      0.78000000       1.4792500    -0.041750000       341.68900       2.0020689    0.0076130447
       292.99998       290.95866       99598.703       8442.8744     -0.23475000       1.1860000     0.096750010       342.76500       2.0172423    0.0083226656
       297.99999       291.02107       99612.649       8521.0840     -0.16400000       2.2627500    -0.019250000       341.39400       2.0278506    0.0098177455
       303.00001       291.00956       99618.852       8509.2005    -0.084750000       1.4207500      0.38575000       342.31200       2.0759595     0.010179338
       307.99998       290.91135       99627.734       8399.9848     -0.82450000       2.1310000     -0.19975000       342.06200       2.0941753    0.0095981678
       312.99999       290.88527       99627.968       8362.1383      -1.1867500       1.1740000      0.35450000       342.03700       2.0000491    0.0071527803
       318.00001       290.86086       99617.632       8325.0590     -0.72975000       1.4810000    -0.067000000       341.44500       2.0473705    0.0076773597
       322.99998       290.83474       99607.922       8283.9171     -0.63425000       1.7372500     -0.25075000       341.30900       2.0549055    0.0090437135
       327.99999       290.86892       99587.485       8284.1051     -0.42800000       1.8352500     -0.40300000       341.36100       2.0121679    0.0074054063
       333.00000       290.85132       99580.992       8258.7998     -0.37825000       2.4072500     -0.10150000       341.73000       2.0335250    0.0071010696
       337.99998       290.75348       99578.133       8182.5398     -0.23450000       2.1020000     -0.43600000       341.71400       2.0376254    0.0084595620
       343.99998       290.72885       99579.261       8147.3424     -0.63550000      0.99750010      0.76925000       342.49800       2.0710315    0.0087931589
       349.00000       290.72057       99592.193       8130.8375     -0.64275000       1.9690000     0.011500000       341.89600       2.1501974     0.013763906
       353.99997       290.75908       99600.177       8151.9044     -0.24725000       2.2085000     0.097500000       341.72600       2.0063995    0.0085144225
       358.99998       290.87053       99608.393       8209.0315     -0.71175000       1.2360000     -0.42275000       342.76800       2.1022280     0.010400924
       364.00000       290.94097       99613.749       8262.6268      0.13725000       2.3350000     -0.17900000       341.66700       2.0290070    0.0092487037
       368.99997       291.05074       99622.182       8392.6405     -0.37625000       2.7322500     -0.12375000       341.78100       2.0321164    0.0086867219
       373.99998       291.08198       99621.626       8399.6319     -0.14975000       2.3055000     -0.21500000       341.66300       2.0313408    0.0075499005
       379.00000       291.05683       99614.884       8331.9791     -0.52600000       2.1575000     -0.19750000       341.88800       2.0525636     0.010619849
       383.99997       291.05063       99605.966       8300.3550     -0.15975000       2.0482500     0.098750000       342.01000       2.0259262    0.0067005464
       388.99998       291.01179       99587.899       8201.9250      0.33725000       1.9582500    -0.079750000       342.18200       2.0244924    0.0084310170
       394.00000       290.98199       99579.302       8165.0791      0.20850000       2.1005000     -0.59050010       341.76700       2.0055219    0.0087598443
       399.00001       290.95854       99565.116       8165.0285      0.59875010       1.5012500      0.11875000       342.34900       2.1027771     0.010655318
       403.99998       290.93892       99569.073       8188.6282    -0.069250000      0.78950010      0.32350000       343.68400       2.0460685    0.0069511587
       408.99999       290.90097       99590.884       8254.8495      0.44000000       1.5562500      0.26600000       342.85100       2.0713713    0.0084548608
       414.00001       290.88737       99600.963       8270.2533       1.1670000       1.6662500     -0.40225000       341.96400       2.0846774     0.012783354
       418.99998       290.88877       99619.649       8314.2634       1.1100000      0.85875000     0.026000000       343.24300       2.0880617    0.0095096017
       423.99999       290.90501       99626.624       8303.7492     0.083750000      0.92675010      0.39325000       343.07300       2.0227370    0.0081435555
       429.00001       290.94284       99623.529       8220.8298       1.9017500       1.3407500      0.46650000       343.03600       2.0652861     0.012422933
       434.99997       290.96707       99617.253       8157.1426      0.57175000       1.2367500      0.45375000       343.34700       2.0253508    0.0069539036
       439.99999       291.02101       99608.353       8108.0868      0.18175000       2.0765000     -0.15725000       342.13500       2.1044340     0.016411805
       445.00000       290.99495       99598.701       8042.6930      0.15975000       1.5115000    0.0087500000       342.29700       2.0682292    0.0099470414
       449.99997       290.90936       99578.473       7943.1974      0.89200000       1.4010000     -0.31150000       341.72000       2.0699822    0.0096006196
       454.99999       290.86887       99574.926       7916.5236       1.1250000       1.6497500      0.19825000       343.05400       2.0616246     0.012201697
       460.00000       290.80277       99576.384       7902.6356       1.1377500       1.3187500     -0.12375000       341.65000       2.0559885     0.010575815
       464.99997       290.76090       99583.840       7921.8928      0.15950000      0.94525000       1.4052500       342.90800       1.9987607     0.011110820
       469.99999       290.75321       99605.039       8012.1720      0.47400000       1.1880000     -0.13500000       341.61700       2.0456779    0.0088511851
       475.00000       290.73315       99613.323       8049.2714      0.30400000      0.85725000     0.021750000       341.69400       2.0519976     0.011344211
       479.99997       290.70563       99623.020       8091.6879      0.54850000       1.7055000     -0.52075000       341.63800       2.0465454    0.0095615942
       484.99998       290.67563       99622.575       8088.8230      0.22175000       1.4080000     -0.28400000       341.94200       1.9960458    0.0086465186
       490.00000       290.65423       99611.270       8053.1761      0.31350000       1.2745000     -0.23625000       342.70700       2.0122515    0.0083990955
       494.99997       290.63444       99607.393       8032.0608      0.24600000       1.1187500     -0.11975000       341.71000       2.0261066    0.0072141342
       499.99998       290.59693       99599.875       7979.6894      0.16075000      0.99625000     -0.22175000       341.67700       2.0607175     0.013811550
       505.00000       290.58573       99597.696       7959.4247      0.34900000      0.75750010     -0.12300000       342.30900       2.0557507     0.013942837
       509.99997       290.59058       99598.413       7955.4288      0.27425000      0.35550000    -0.043000000       342.31000       2.0296496     0.013804134
       514.99998       290.60921       99602.134       7958.1643      0.40725000      0.32550000     0.040500000       342.58700       1.9269644    0.0081168473
       520.99999       290.63804       99611.653       7958.9137      0.92600010      0.40725000      0.23850000       342.80100       2.0309891    0.0098585127
       526.00000       290.74574       99612.752       8056.7023     0.022000000       1.1462500      0.66800000       343.24600       2.0033853     0.013925860
       530.99998       290.80647       99612.080       8114.2663      0.63775000       2.5060000      0.28575000       342.38000       2.0529056     0.014173448
       535.99999       290.85487       99607.713       8168.5809     -0.54275000       2.6170000     -0.23275000       342.38600       2.0390039     0.013519858
       541.00000       290.89345       99596.245       8239.3548    -0.038500000       2.3830000    -0.096250010       342.53900       2.0689788     0.022546475
       545.99998       290.97545       99586.063       8307.1291      0.45300000       2.8252500    -0.029750000       342.92900       2.0548093     0.011311602
       550.99999       291.05617       99572.947       8363.2337      0.96900000       1.9165000      0.62275000       343.80900       1.9984486    0.0085761331
       556.00000       291.13993       99569.504       8380.2532      0.99450000       1.9155000    0.0062500000       342.85600       1.9733405    0.0082175220
       560.99997       291.17549       99571.734       8370.8350       1.5892500       2.4800000     -0.23150000       342.98800       2.0124470     0.011738899
       565.99999       291.12908       99597.905       8272.2339       1.5987500       1.6630000     0.079500000       342.76300       2.0106490    0.0094541718
       571.00000       291.06186       99608.342       8181.4331       1.4667500       2.2335000      0.10100000       342.82100       2.0031591    0.0087314666
       575.99997       290.90970       99614.359       8061.9680       1.8160000       2.4707500    -0.026000000       342.86400       2.0151053     0.011684080
       580.99999       290.83752       99614.140       7985.9037       1.8450000       1.1797500     0.095750000       342.62300       2.0555527    0.0083211277
       586.00000       290.78992       99606.532       7925.8513       1.3485000       1.7645000     -0.33475000       342.17900       2.0465267    0.0082372780
       590.99997       290.73085       99584.228       7863.1657      0.24325000       2.1527500      0.26575000       343.00900       2.2429664    0.0092684387
       595.99999       290.72528       99576.388       7828.2594      0.94850000       2.4285000    -0.053000000       342.95700       3.0836056     0.011343018
       601.00000       290.81223       99566.872       7840.3284      0.65275000       2.2520000      0.39975000       342.65000       2.7999462    0.0087369449
