MIRICO/SHELL project - Processed LDS file generated on
Sat Jul 08 22:47:52 2017
Time stamp for record start
05/10/2017  15:03:54.0001
Nb of points in the record
         945
Beam position index
       4.0000000
Beam angle (degrees)
    -0.021000000
Open Path length (m)
       98.010000
****************** Temporal data record ************************
Elapsedtime_sec Temp_K Press_Pa Humidity_ppmv WindX_m/s WindY_m/s WindZ_m/s Speedofsound_m/s CH4vmr_ppmv CH4vmrerror_ppmv  
      0.00000000       290.58439       99620.412       8016.2167      0.55200000       1.8135000      0.32300000       343.12000       1.9053086    0.0071840431
       4.9999729       290.52909       99620.471       8012.3851     -0.27500000       3.3825000      0.10050000       342.15800       1.9079491    0.0066460731
       9.9999860       290.59147       99620.362       8067.6571     -0.25050000       1.7575000      0.40475000       343.02800       1.9310856    0.0071482188
       14.999999       290.61049       99620.409       8082.1985      0.80325000       2.5315000      0.36050000       343.74300       1.9002278    0.0056031780
       19.999972       290.63765       99622.060       8109.5064      -1.0732500       3.8115000      0.22050000       342.28400       1.9050361    0.0079273061
       24.999985       290.67629       99618.326       8115.3160   -0.0065000000       3.0272500      0.59150000       342.85300       1.9329784    0.0072719229
       30.999993       290.77492       99611.128       8100.5951      0.54825000       3.5127500     -0.49950000       341.39800       1.8777235    0.0088372537
       36.000006       290.67968       99603.265       8064.3651      0.76575010       2.2312500      0.55450000       342.63800       1.9241632    0.0071854204
       40.999979       290.64968       99595.360       8052.8815     -0.45525000       3.0452500     0.061750000       342.37700       1.9193101    0.0063501456
       45.999992       290.61963       99587.468       8048.8977      0.65025000       3.1522500     0.053750000       341.76200       1.9263804    0.0062410222
       51.000005       290.51750       99578.576       8038.7487     -0.36525000       2.3130000      0.19275000       343.06100       1.9021047    0.0074823118
       55.999978       290.55490       99577.974       8056.2604      0.27000000       1.4732500     -0.12175000       343.70700       1.9524111    0.0068210296
       60.999991       290.70605       99577.277       8104.0594      0.51050000       2.9045000     -0.11900000       343.15600       1.9335798    0.0064734106
       66.000004       290.75515       99594.944       8136.0387      0.79675000       2.4440000     -0.18325000       342.07700       1.9365246    0.0075460340
       70.999977       290.80693       99606.218       8165.5794      0.84125010       2.3402500      0.45500000       341.95400       1.9235403    0.0062650033
       75.999990       290.81530       99620.358       8189.6881    -0.081000000       2.4025000      0.56650000       342.86200       1.8974788    0.0077790591
       81.000003       290.84389       99627.777       8218.8127      0.24975000       1.5825000      0.20275000       342.32800       1.8407875    0.0080146728
       85.999976       290.88477       99630.294       8249.7727    -0.040500000       2.8607500      0.24675000       342.20400       1.9398380    0.0084671202
       90.999989       290.93656       99626.205       8276.5128      0.24600000       1.9017500     0.063750010       341.95400       1.8772497    0.0065643106
       96.000002       291.03038       99625.060       8325.8085     -0.77275000       2.3730000     -0.14500000       342.04000       1.9418830    0.0071941942
       100.99998       291.16182       99620.866       8394.9478    -0.052250000       2.5932500     -0.15700000       342.19400       1.9572690    0.0063847175
       105.99999       291.21013       99615.671       8429.5585      0.46875000       1.8095000     -0.20975000       342.15100       1.9333299    0.0069490605
       111.00000       291.26295       99610.794       8452.4986      0.79200010       1.8462500      0.10725000       342.23700       1.9319212    0.0065883143
       115.99997       291.26004       99600.397       8446.8641      0.74800000       1.6852500     -0.41800000       342.13700       1.9565929    0.0073561322
       121.99998       291.24827       99593.414       8423.3505      0.41350000       1.9400000      0.19125000       341.97700       1.9757707    0.0079956260
       127.00000       291.31317       99586.856       8397.9499      0.64850000       2.9012500     -0.29800000       341.78700       1.9382103    0.0058848684
       132.00001       291.26760       99588.276       8358.5115      0.74375000       2.5435000     0.011500000       341.96300       1.8936860    0.0080482920
       136.99998       291.10677       99598.760       8298.3215     -0.36500000       2.1342500     -0.36225000       343.12300       1.9478146    0.0070605639
       141.99999       290.98548       99605.876       8229.6299     -0.12275000      0.75700000      0.78175000       343.37100       1.9062824    0.0072186363
       147.00001       290.77347       99620.788       8128.9612     -0.36025000       1.2482500      0.20575000       343.24900       1.8955502    0.0077110884
       151.99998       290.65773       99628.559       8063.1449     -0.83450000       1.0922500      0.27750000       343.49300       1.8918450    0.0075840752
       156.99999       290.61947       99629.240       7994.5022      -1.8872500       1.2965000     -0.42325000       341.55700       1.8757439    0.0060953217
       162.00001       290.58135       99631.141       7949.0474      -1.1412500       1.0425000   0.00025000000       342.27400       1.9119349    0.0080930847
       166.99998       290.61450       99631.693       7954.2480      -1.5300000       1.7540000     -0.33100000       342.14000       1.9102344    0.0060664433
       171.99999       290.60336       99630.557       7934.8375     -0.93875000       3.9832500     -0.40875000       342.00400       1.9074951    0.0061968759
       177.00001       290.56709       99631.551       7908.3138      -1.0087500       3.1885000     0.077500000       341.66300       1.8711846    0.0067363462
       181.99998       290.54725       99626.203       7888.6231     -0.89325000      0.86900000     -0.41275000       342.18300       1.9137327    0.0056563695
       186.99999       290.53813       99613.931       7869.0334      -1.0442500       2.3570000     0.013750000       343.12000       1.9218791    0.0065342959
       192.00000       290.49650       99603.805       7843.4460     -0.45425000       3.2097500      0.67200010       342.05100       1.9143245    0.0066242893
       196.99998       290.38812       99582.020       7778.9638      -1.1330000       3.5535000     -0.26600000       341.50200       1.9299565    0.0077575458
       201.99999       290.38103       99575.683       7787.3805     -0.76000010       3.8747500     -0.36800000       341.39900       1.8940688    0.0061437660
       207.00000       290.42141       99579.648       7850.7799      -1.5560000       3.0802500     0.069000010       341.65400       1.8835122    0.0058955674
       212.99997       290.45139       99585.665       7896.5017      -2.8265000       2.6910000     -0.17425000       341.88000       1.9056318    0.0055312760
       217.99998       290.55889       99605.155       7949.5355      -1.3075000       2.6047500     -0.75175010       341.66100       1.9062334    0.0065041832
       223.00000       290.63462       99615.391       8051.9015    -0.058500000       2.7117500     -0.34150000       341.78100       1.9114092    0.0080240511
       227.99997       290.67465       99623.086       8182.0588     -0.38325000       2.4937500     -0.48775000       341.48900       1.9238627    0.0076009580
       232.99998       290.71487       99628.361       8277.3755      0.18625000       2.6152500      0.32975000       341.52600       1.9217003    0.0071731065
       238.00000       290.78912       99631.075       8455.1503     -0.10625000       2.2632500      0.25400000       342.26400       1.9078453    0.0064736529
       242.99997       290.82210       99631.393       8532.5791      0.13525000       2.3822500     -0.19925000       341.58700       1.9222251    0.0080434448
       247.99998       290.80032       99630.145       8492.4203     -0.27775000       1.9260000     -0.21975000       342.09800       1.9130349    0.0082331972
       253.00000       290.80044       99624.032       8495.6659      0.78825000       1.7777500      0.27000000       342.02400       1.9395492    0.0084060969
       258.00001       290.78762       99611.986       8488.1766      0.69250010       2.4950000      -1.2400000       341.71900       1.9176921    0.0078392729
       262.99998       290.80166       99601.716       8482.0657      0.69400000       2.4832500    -0.090750000       341.58900       1.9375023    0.0068663074
       267.99999       290.83710       99581.639       8486.1107      0.79900000       2.0757500     0.061500000       342.11900       1.9419144    0.0078998244
       273.00001       290.85720       99575.620       8469.3059       1.2825000       2.8560000     -0.19075000       341.31900       1.9543778    0.0068712279
       277.99998       290.88210       99577.984       8409.9326      0.85350010       2.6560000     -0.31625000       341.34900       1.9435255    0.0077599932
       282.99999       290.91238       99580.237       8407.2883      0.61125000       1.4975000     -0.19700000       341.33200       1.9199468    0.0065175356
       288.00001       290.93862       99589.321       8432.6711      0.80350010       1.5525000      0.14200000       341.35200       1.9265065    0.0087618100
       292.99998       290.95866       99598.703       8442.8744      0.14225000       1.0125000      0.35525000       342.90700       1.8996194    0.0077730291
       297.99999       291.02107       99612.649       8521.0840    -0.052250000       1.9850000     -0.25975000       341.30700       1.9170511    0.0067873724
       304.00000       291.00283       99619.796       8501.6830     -0.10625000       1.2747500      0.29925000       342.41600       1.8790313    0.0091718346
       308.99997       290.90516       99628.272       8391.6371     -0.55400000       2.6130000     -0.22625000       341.76800       1.9217939    0.0077616217
       313.99999       290.88153       99627.278       8355.7327  -0.00075000000       1.3445000     -0.35675000       342.39500       1.9502241    0.0070310009
       319.00000       290.85461       99615.899       8316.0643     -0.86500010       1.6835000      0.18300000       341.50700       1.9217141    0.0073587447
       323.99997       290.83105       99605.666       8276.8338     -0.51575010       1.6212500     -0.17100000       341.32900       1.9794223    0.0091035515
       328.99999       290.86740       99585.783       8280.1254     -0.64850000       1.9135000     -0.15725000       342.11000       1.8992938    0.0067909335
       334.00000       290.84480       99580.298       8252.1219     -0.12400000       2.3035000    0.0025000000       341.76200       1.9486235    0.0085257498
       338.99997       290.74682       99577.819       8174.8515      0.17750000       2.3865000     -0.26100000       341.54300       1.8825530    0.0071847681
       343.99998       290.72885       99579.261       8147.3424     -0.38300000       1.6907500      0.12700000       342.30300       1.8899141    0.0078078769
       349.00000       290.72057       99592.193       8130.8375     -0.62250000       2.0050000      0.16775000       341.59300       1.8952874    0.0083030258
       353.99997       290.75908       99600.177       8151.9044     -0.49800000       2.1722500    -0.089500000       342.04500       1.9469712    0.0087192632
       358.99998       290.87053       99608.393       8209.0315     -0.56550000      0.72800000     -0.14350000       342.81300       1.9052310    0.0070045200
       364.00000       290.94097       99613.749       8262.6268      0.21200000       2.5280000     -0.25775000       341.74300       1.9034051    0.0096303048
       368.99997       291.05074       99622.182       8392.6405     -0.49025000       2.6782500     -0.21150000       342.04400       1.9065334    0.0081648293
       373.99998       291.08198       99621.626       8399.6319     -0.18775000       2.1937500     -0.29925000       341.73800       1.9646384    0.0087703659
       379.00000       291.05683       99614.884       8331.9791     -0.40250000       1.7005000    -0.029750000       341.81300       1.9009454    0.0055476520
       383.99997       291.05063       99605.966       8300.3550     -0.27425000       2.0657500     -0.10850000       341.49200       1.8981255    0.0068654012
       388.99998       291.01179       99587.899       8201.9250    -0.029750000       1.7117500     -0.10050000       342.08000       1.8910857    0.0070089871
       394.99999       290.97602       99577.877       8160.7709      0.19150000       1.9057500     -0.70725010       342.06800       1.9531238    0.0078865326
       400.00000       290.95462       99565.120       8167.9737      0.22000000       1.1862500      0.33225000       342.74300       1.9120258    0.0066073277
       404.99998       290.93501       99571.046       8196.0066     -0.20825000       1.1412500      0.29425000       343.36200       1.9305244    0.0071450447
       409.99999       290.89724       99592.887       8258.6214      0.72200010       1.7295000    -0.032750000       342.55400       1.8867565    0.0062702725
       415.00000       290.88616       99602.997       8272.3004       1.1470000       1.7150000     0.042250000       342.78600       1.8845286    0.0076709926
       419.99997       290.89102       99621.544       8314.9150      0.91125010       1.1572500      0.10100000       342.96500       1.9140301    0.0071329219
       424.99999       290.90976       99627.269       8297.5082      0.73075000       1.2200000      0.43450000       343.69100       1.9018606    0.0087382269
       430.00000       290.94690       99622.859       8210.4143      0.52625000       1.6287500     0.042750000       342.73000       1.8967623    0.0073373468
       434.99997       290.96707       99617.253       8157.1426     -0.13000000       1.4725000    -0.075250010       343.38900       1.9613728    0.0081704262
       439.99999       291.02101       99608.353       8108.0868    -0.025750000       1.9682500    -0.021000000       342.22200       1.9093739    0.0078999914
       445.00000       290.99495       99598.701       8042.6930      0.63300000       1.2985000    -0.092500000       342.31600       1.8924887    0.0079371337
       449.99997       290.90936       99578.473       7943.1974      0.64975010       1.6065000     0.098250000       341.85000       1.9287706    0.0064164685
       454.99999       290.86887       99574.926       7916.5236       1.4532500       1.5340000     0.072750000       342.57300       1.9243525    0.0090939766
       460.00000       290.80277       99576.384       7902.6356       1.1092500       1.3837500    0.0050000000       341.60300       1.9564004    0.0078982683
       464.99997       290.76090       99583.840       7921.8928     -0.57225000      0.79400000      0.87200000       343.77700       1.8894783    0.0085645298
       469.99999       290.75321       99605.039       8012.1720      0.53475000       1.0477500     -0.20450000       341.61800       1.9010280     0.011257827
       475.00000       290.73315       99613.323       8049.2714      0.37550000      0.84175000      0.14650000       341.76300       1.9229980    0.0071942264
       479.99997       290.70563       99623.020       8091.6879      0.54850000       1.6520000     -0.40900000       341.92600       1.9111963    0.0089482728
       485.99998       290.67006       99614.392       8064.6671      0.38175000       1.4465000     -0.20225000       341.88000       1.9047627    0.0073566945
       490.99999       290.65027       99610.492       8049.5525      0.10700000       1.2700000     -0.29200000       342.64400       1.9411301    0.0093360521
       496.00001       290.63048       99606.620       8026.9396      0.30200000       1.0985000      0.14050000       342.11400       1.9347797    0.0085270916
       500.99998       290.59369       99599.239       7974.7388      0.19225000       1.0405000     0.072500010       342.44500       1.9419283    0.0090497923
       505.99999       290.58500       99597.560       7956.7162      0.36975000      0.77975000     -0.13475000       341.95000       1.9589723    0.0076607412
       511.00000       290.59331       99598.958       7955.2817      0.18900000      0.50250000     0.026750000       342.35600       1.9384988    0.0093285192
       515.99998       290.60079       99609.286       7934.2246      0.40975000      0.37025000     0.065250000       342.65100       1.9256520    0.0089875824
       520.99999       290.63804       99611.653       7958.9137      0.56425010      0.45575000      0.70100000       343.63500       1.9322164    0.0072461833
       526.00000       290.74574       99612.752       8056.7023    -0.088250000       1.6082500      0.37925000       343.14800       1.9435554    0.0077839798
       530.99998       290.80647       99612.080       8114.2663      0.50900000       2.4892500     0.098250000       342.61100       1.9143889    0.0085358787
       535.99999       290.85487       99607.713       8168.5809      0.78450010       2.8445000     -0.16575000       342.90800       1.9060914    0.0090684844
       541.00000       290.89345       99596.245       8239.3548      0.47200000       2.3645000   -0.0017500000       342.32400       1.8769783    0.0077448772
       545.99998       290.97545       99586.063       8307.1291      0.33175000       2.5110000     -0.90150000       343.02100       1.9600566    0.0098318909
       550.99999       291.05617       99572.947       8363.2337       1.8140000       2.7480000    -0.016000000       343.37000       1.8887242    0.0068618721
       556.00000       291.13993       99569.504       8380.2532      0.51225000       2.5405000      0.15175000       342.37500       1.8975131     0.010072018
       560.99997       291.17549       99571.734       8370.8350       1.6147500       1.0280000    -0.082000000       343.31500       1.9122293    0.0075591338
       565.99999       291.12908       99597.905       8272.2339       2.1067500       1.8227500     -0.17550000       342.34100       1.9327790     0.011525969
       571.00000       291.06186       99608.342       8181.4331       1.1707500       2.4875000      0.56375000       342.77400       1.9272241    0.0083998913
       577.00001       290.89329       99614.906       8045.4560       1.9465000       2.5580000     -0.89850000       341.47200       1.9159307    0.0075540337
       581.99998       290.82603       99613.210       7972.6234       1.1732500       1.5577500      0.78325000       343.04400       1.9911519    0.0077812694
       586.99999       290.76268       99592.240       7906.3770      0.89775000       1.7375000      0.18700000       343.10300       2.1282429    0.0073245464
       592.00001       290.72669       99582.467       7854.4941      0.55425000       2.2025000     -0.22275000       343.22600       2.0866709    0.0077011379
       596.99998       290.80407       99569.246       7855.9726      0.10575000       2.3772500     -0.27775000       342.65400       2.3417362    0.0056309909
       601.99999       290.81177       99567.032       7835.8801      0.97775010       2.0120000      0.19825000       342.88500       2.2086795    0.0064924493
