MIRICO/SHELL project - Processed LDS file generated on
Sat Jul 08 20:53:22 2017
Time stamp for record start
05/10/2017  15:03:55.0001
Nb of points in the record
         945
Beam position index
       5.0000000
Beam angle (degrees)
       8.5430000
Open Path length (m)
       83.010000
****************** Temporal data record ************************
Elapsedtime_sec Temp_K Press_Pa Humidity_ppmv WindX_m/s WindY_m/s WindZ_m/s Speedofsound_m/s CH4vmr_ppmv CH4vmrerror_ppmv  
      0.00000000       290.56830       99620.423       8012.8806     -0.54075000       1.8252500      0.30675000       343.09700       2.0301945     0.010783062
       5.0000131       290.52558       99620.483       8015.4748      0.23825000       3.8007500     -0.21975000       342.18300       1.9659276    0.0092356440
       9.9999860       290.59427       99620.371       8070.6581     -0.84750000       2.1032500      0.70425000       342.70300       1.9532876     0.010703235
       14.999999       290.61558       99623.236       8096.7202      0.45275000       2.0090000      0.19900000       343.45000       1.9864732    0.0095672852
       20.000012       290.64439       99621.514       8111.5752     -0.36275000       3.5852500      0.24525000       342.40600       2.0149997     0.010530696
       24.999985       290.76063       99615.882       8110.7212      0.35025000       3.9065000     -0.28075000       342.33500       1.9770282    0.0095057141
       29.999998       290.77492       99611.128       8100.5951       1.1405000       3.2635000     -0.84650000       341.81200       1.9376017     0.011891262
       35.000011       290.67968       99603.265       8064.3651      0.92075000       2.3332500     -0.22250000       342.86700       1.9324796     0.012813585
       39.999984       290.64968       99595.360       8052.8815     -0.44525000       3.1825000      0.19700000       342.38800       1.9802860     0.011226682
       44.999997       290.61963       99587.468       8048.8977       1.2262500       3.1605000     -0.35875000       341.80300       1.9405949     0.016240724
       50.000010       290.51750       99578.576       8038.7487     -0.97775010       2.3242500     -0.61425000       342.84300       2.0187563     0.012287506
       54.999983       290.55490       99577.974       8056.2604     0.036500000       2.0837500     -0.13125000       343.00000       1.9915449     0.013405464
       59.999996       290.70605       99577.277       8104.0594       1.1930000       2.0510000      0.50975000       343.36200       1.9338602     0.010714660
       65.000010       290.75515       99594.944       8136.0387      0.75525000       2.8455000     -0.57275000       342.12100       1.9755661     0.010639865
       69.999982       290.80693       99606.218       8165.5794      0.95675000       1.1570000      0.90575000       342.56800       1.9169031     0.011937807
       74.999996       290.81530       99620.358       8189.6881      0.44900000       2.0157500      0.32150000       342.22800       1.9791549     0.011643529
       81.000003       290.85108       99628.673       8224.8567      0.13525000       1.5905000     0.068250000       342.39000       1.9781069    0.0098086157
       85.999976       290.88019       99626.181       8245.2862     -0.44100000       3.1892500      0.17950000       341.86500       1.9580208     0.012018548
       90.999989       290.95325       99626.081       8285.4555     -0.10550000       2.3590000      0.44900000       342.06800       1.9258300     0.011710025
       96.000002       291.10582       99624.082       8363.1781     -0.30475000       2.4532500     0.029750000       342.12600       1.9377112     0.012082568
       100.99998       291.17333       99619.941       8401.5872    -0.026500000       2.2645000     -0.24400000       341.87600       2.0624723     0.010959545
       105.99999       291.22271       99614.790       8435.6387      0.72025000       1.3392500      0.21375000       342.71500       1.9644499     0.010267412
       111.00000       291.27050       99609.677       8454.8427      0.73475000       1.5022500      0.66975000       342.80800       1.9378438     0.011728755
       115.99997       291.25807       99598.986       8444.0055      0.79275010       1.6665000     -0.23975000       342.09600       2.0031991     0.012757185
       120.99999       291.24827       99593.414       8423.3505      0.65625010       1.9287500     -0.43750000       341.49700       1.9285780     0.012074284
       126.00000       291.31317       99586.856       8397.9499      0.14200000       2.4730000    -0.087250000       341.92100       1.9200416     0.013453696
       131.00001       291.26760       99588.276       8358.5115      0.63950000       2.4377500     -0.40275000       341.53300       2.0166351     0.010808603
       135.99999       291.10677       99598.760       8298.3215     0.024500000       2.5870000     0.038250000       343.07900       1.9226505     0.013622187
       141.00000       290.98548       99605.876       8229.6299     -0.27075000      0.97275010      0.63250010       343.29200       1.9372415     0.010395949
       146.00001       290.77347       99620.788       8128.9612      0.12225000       1.2295000    -0.030000000       342.71600       2.0219647     0.017746103
       150.99999       290.65773       99628.559       8063.1449     -0.82200000       1.6262500     -0.22900000       343.69800       1.9313315     0.012738739
       156.00000       290.61947       99629.240       7994.5022      -1.7812500       1.0447500     -0.14750000       341.57900       1.9343686     0.011083657
       161.00001       290.58135       99631.141       7949.0474      -1.5455000       1.3810000    -0.047750000       342.01800       1.9952441     0.011913462
       165.99998       290.61450       99631.693       7954.2480      -1.2202500       1.8480000     -0.56650000       342.37700       1.9297579     0.018853929
       171.99999       290.59965       99630.183       7930.5254     -0.46400000       3.0505000     0.091000010       342.23900       1.9925277     0.011142791
       177.00001       290.56314       99630.788       7904.3667     -0.81325010       3.0515000      0.29650000       341.65200       1.9896006     0.010459372
       181.99998       290.54325       99624.674       7884.6983     -0.61500000       1.8212500     -0.17225000       342.44800       1.9702838     0.011309097
       186.99999       290.53080       99612.003       7863.9958      -1.0302500       1.7237500    -0.028250000       342.85200       1.9901367     0.012281724
       192.00000       290.48668       99601.635       7838.2094      -1.1357500       2.8730000      0.67775010       342.40900       1.9653669     0.014695630
       196.99998       290.38363       99580.141       7777.9659     -0.95050010       3.4710000      0.11825000       341.65100       1.9327317     0.012674328
       201.99999       290.38422       99575.333       7793.0888     -0.46325000       3.9337500     -0.14800000       342.11000       1.9690634     0.011348784
       207.00000       290.42395       99580.158       7857.1951      -1.3257500       3.5072500     0.051000000       341.85800       1.9406864     0.012271830
       211.99998       290.45139       99585.665       7896.5017      -1.4407500       3.2972500     -0.50250000       341.32400       1.9602288     0.011326993
       216.99999       290.55889       99605.155       7949.5355      -1.3842500       3.3142500     -0.46925000       341.29300       1.9067720     0.018224485
       222.00000       290.63462       99615.391       8051.9015     -0.31575000       2.5497500     -0.32300000       341.83900       1.9645820     0.011235363
       226.99998       290.67465       99623.086       8182.0588     -0.71750000       2.2795000    -0.079000000       341.52900       2.0122485     0.012137991
       231.99999       290.71487       99628.361       8277.3755     -0.18300000       2.4710000      0.10625000       341.83900       1.9772819     0.018070128
       237.00000       290.78912       99631.075       8455.1503      0.45400000       2.4235000     -0.35025000       342.24400       1.9145898     0.013050688
       241.99997       290.82210       99631.393       8532.5791      0.33900000       2.4217500     -0.39450000       341.65800       1.9590616     0.011064437
       246.99999       290.80032       99630.145       8492.4203     -0.26150000       1.9060000     -0.20050000       341.98200       1.9401401     0.017361276
       252.00000       290.80044       99624.032       8495.6659      0.51825000       2.1937500     -0.10175000       342.14500       1.9905125     0.012579104
       257.00001       290.78762       99611.986       8488.1766      0.89125000       3.2615000      0.27400000       342.21200       1.9010899     0.018709812
       262.99998       290.80595       99599.515       8480.7431       1.0395000       2.6515000      0.52975000       341.89100       1.9288284     0.011170867
       267.99999       290.84109       99579.934       8483.6430       1.2325000       2.3292500     -0.19525000       341.52200       1.9204593     0.012618604
       273.00001       290.86127       99575.168       8464.6034       1.0535000       2.6660000     -0.31950000       341.31700       1.9095117     0.021974325
       277.99998       290.88816       99578.134       8407.7730      0.89025000       2.3865000     -0.41575000       341.31700       1.9317013     0.013762366
       282.99999       290.91843       99581.138       8409.2102      0.63075000       1.4315000     -0.18600000       341.31900       1.9719521    0.0089598038
       288.00001       290.94265       99591.100       8434.1158      0.97350010       1.4802500      0.20050000       341.48600       1.9227831    0.0092627740
       292.99998       290.96264       99600.725       8445.8101     0.050250000      0.92925010      0.57200000       342.75800       1.9347095     0.013616914
       297.99999       291.02172       99614.087       8522.1394    0.0030000000       1.8850000     -0.32075000       341.34900       1.9772293    0.0095726441
       303.00001       291.00283       99619.796       8501.6830     0.041250000       1.2187500      0.18550000       342.19600       1.9510567     0.012377453
       307.99998       290.90516       99628.272       8391.6371     -0.58550000       2.2087500     -0.12100000       341.75500       1.9343093     0.011473241
       312.99999       290.88153       99627.278       8355.7327     -0.31450000       1.5775000     0.049250000       341.89100       1.9511669     0.010468388
       318.00001       290.85461       99615.899       8316.0643      -1.0505000       1.8360000      0.42375000       342.20800       2.0002766     0.010574957
       322.99998       290.83105       99605.666       8276.8338     -0.57775000       1.6352500     -0.18025000       341.30200       1.9559374    0.0095439108
       327.99999       290.86740       99585.783       8280.1254     -0.90500000       2.2045000     -0.23500000       342.50200       1.9454047     0.012222806
       333.00000       290.84480       99580.298       8252.1219     -0.16175000       2.2542500     -0.20725000       341.32000       1.9444586     0.012023578
       337.99998       290.74682       99577.819       8174.8515     -0.30150000       1.8975000     -0.37925000       341.78700       1.9682095     0.010838711
       342.99999       290.72885       99579.261       8147.3424     -0.33200000      0.99000010     -0.87450000       342.46600       1.9785428    0.0087992291
       348.00000       290.72057       99592.193       8130.8375     -0.74725000       2.0167500     0.040000000       341.46100       1.9126913     0.010931181
       354.00001       290.77122       99601.776       8159.3337     -0.43750000       1.9147500     -0.15600000       342.15500       1.9839866    0.0099471121
       358.99998       290.88456       99609.560       8218.6224     -0.13750000       1.3435000     0.010000000       342.44100       1.9796973     0.011130581
       364.00000       290.95515       99614.677       8275.0455      0.36175000       2.1640000     -0.74725000       341.64500       2.0111339    0.0097302684
       369.00001       291.06000       99622.473       8398.1272     -0.35475000       2.3937500     -0.33800000       342.50300       1.9198651     0.011508902
       373.99998       291.08372       99620.911       8394.8911     -0.31975000       1.9862500     -0.33925000       341.79100       1.9518343     0.011457440
       379.00000       291.05658       99613.397       8326.7423      -1.2300000       1.1185000      0.13925000       341.88700       1.9315487     0.012605399
       384.00001       291.04790       99603.738       8292.4012    -0.063250010       2.2785000     -0.23525000       341.58600       1.9535767     0.010492229
       388.99998       291.00583       99585.983       8192.5115     0.081500000       1.7602500     -0.18025000       342.23700       1.9392586     0.018025732
       394.00000       290.97602       99577.877       8160.7709      0.25625000       1.6670000     -0.60525000       342.22600       1.9700087    0.0090489568
       399.00001       290.95462       99565.120       8167.9737      0.39275000       1.2105000     0.081750010       342.12000       1.9807487     0.012333329
       403.99998       290.93501       99571.046       8196.0066      0.18875000       1.4620000     0.019500000       342.79200       1.9946053     0.011144106
       408.99999       290.89724       99592.887       8258.6214      0.83475010       1.6307500     -0.23050000       342.27700       1.8963253     0.013278092
       414.00001       290.88616       99602.997       8272.3004       1.1695000       1.8372500     -0.36950000       342.04000       1.9287877    0.0098548215
       418.99998       290.89102       99621.544       8314.9150      0.62450000      0.89375010      0.13175000       342.85000       1.9380323     0.010971485
       423.99999       290.90976       99627.269       8297.5082      0.88625000       1.5310000     -0.20850000       342.06500       1.9536113    0.0097588084
       429.00001       290.94690       99622.859       8210.4143      0.16600000       1.9825000    -0.065250000       343.06100       1.9244165     0.011312058
       433.99998       290.96707       99617.253       8157.1426      0.58525000       2.2985000     -0.29850000       342.79600       1.9597204     0.018145526
       438.99999       291.02101       99608.353       8108.0868      0.66475000       1.8817500    -0.088250000       342.72100       1.9084311     0.013743797
       445.00000       290.98530       99596.475       8028.6293      0.89200000       1.6107500     -0.45550000       342.16800       1.9553075    0.0090563245
       450.00001       290.90132       99577.265       7935.6342       1.2767500       1.2840000     -0.17625000       341.77300       1.9640209    0.0083970891
       454.99999       290.86070       99574.965       7914.5227       1.2632500       1.9385000      0.13475000       341.91000       1.9329471     0.018002931
       460.00000       290.79340       99577.373       7903.9768       1.0305000       1.0567500      0.14850000       341.69300       1.9503886     0.017563432
       465.00001       290.76944       99596.521       7976.6509     0.066500000      0.88150010      0.40750000       343.80300       1.9513022    0.0096004832
       469.99999       290.74917       99606.906       8020.2399      0.73075000      0.91075000     -0.20575000       341.63300       1.9594492    0.0083778729
       475.00000       290.72954       99618.926       8076.1245      0.40475000      0.96525010     0.084500010       341.96300       1.9577652     0.010120026
       480.00001       290.69964       99623.426       8093.0951      0.29500000       1.3710000     -0.12175000       341.72900       1.9479992     0.010292637
       484.99998       290.67006       99614.392       8064.6671      0.18175000       1.2662500     -0.18500000       341.93000       1.9413204     0.010700293
       490.00000       290.65027       99610.492       8049.5525     -0.15050000       1.3750000     -0.34750000       342.55900       1.9430669    0.0090223069
       495.00001       290.63048       99606.620       8026.9396     0.072500010       1.2512500     0.021750000       341.83600       1.9331368    0.0084743845
       499.99998       290.59369       99599.239       7974.7388      0.20150000      0.96025000     -0.10225000       341.88300       1.9202481     0.010023838
       505.00000       290.58500       99597.560       7956.7162      0.49275000      0.71250000    -0.086000000       341.79400       1.9801449    0.0086156500
       510.00001       290.59331       99598.958       7955.2817      0.14825000      0.36525000    -0.024000000       342.43800       1.9077023     0.012564388
       514.99998       290.60079       99609.286       7934.2246      0.44050000      0.17550000      0.20075000       342.70000       1.9516720    0.0072021786
       520.00000       290.63804       99611.653       7958.9137      0.43350000      0.35400000      0.44825000       343.32500       1.9337977    0.0078094627
       525.00001       290.74574       99612.752       8056.7023      0.23350000       1.1415000      0.36725000       343.05700       1.9400785    0.0068863230
       529.99998       290.80647       99612.080       8114.2663     0.037250000       2.1952500      0.26625000       342.99800       1.9169959    0.0073323325
       535.99999       290.83717       99603.420       8183.0112      0.35950000       2.2082500      0.26125000       342.60500       1.9300668     0.010627556
       541.00000       290.90882       99594.317       8253.1454     -0.88900010       3.1340000     -0.44800000       342.65900       1.9268357    0.0095331867
       545.99998       291.01607       99576.903       8343.4725      0.19500000       2.3560000     -0.52350000       343.10600       1.9009474     0.010298845
       550.99999       291.06495       99572.463       8365.3752       1.0020000       2.9352500      0.76450000       342.16200       1.9286440    0.0081268594
       556.00000       291.15107       99569.353       8381.8104       2.5147500       1.8880000     -0.34475000       342.18200       1.9260715    0.0096421170
       560.99997       291.17655       99573.076       8363.7930       1.2552500       2.3915000     -0.20825000       342.94100       1.9256283     0.016227739
       565.99999       291.11760       99600.485       8254.3916       2.2532500       1.2280000      0.62250000       342.58900       1.9108407     0.011681962
       571.00000       291.04547       99609.691       8162.8077      0.45350000       2.0352500      0.20750000       342.95100       1.9338291    0.0078282252
       576.00001       290.89329       99614.906       8045.4560       1.7660000       2.6582500     -0.58775000       341.51400       1.9322938    0.0094690806
       580.99999       290.82603       99613.210       7972.6234       1.9780000       2.0902500    -0.018250000       342.37200       1.9666546    0.0098309466
       586.00000       290.76268       99592.240       7906.3770      0.87075010       2.0027500     0.021250000       342.82400       2.0213673    0.0099282257
       591.00001       290.72669       99582.467       7854.4941       1.1157500       1.7962500     -0.13025000       342.96200       2.1101001    0.0084186063
       595.99999       290.80407       99569.246       7855.9726      0.47650000       2.7260000     -0.11825000       342.39900       2.6329205     0.010992658
       601.00000       290.81177       99567.032       7835.8801       1.0755000       2.5450000     0.066750000       342.50200       2.6238296    0.0079193051
