MIRICO/SHELL project - Processed LDS file generated on
Sun Jul 09 19:24:15 2017
Time stamp for record start
05/10/2017  15:03:55.0001
Nb of points in the record
         945
Beam position index
       6.0000000
Beam angle (degrees)
       13.615000
Open Path length (m)
       58.300000
****************** Temporal data record ************************
Elapsedtime_sec Temp_K Press_Pa Humidity_ppmv WindX_m/s WindY_m/s WindZ_m/s Speedofsound_m/s CH4vmr_ppmv CH4vmrerror_ppmv  
      0.00000000       290.56830       99620.423       8012.8806    -0.015000000       2.5047500      0.27300000       343.34300       2.0229472     0.013045441
       5.0000131       290.52558       99620.483       8015.4748      0.15875000       4.6020000      0.27275000       342.39400       1.9799309     0.010917723
       9.9999860       290.59427       99620.371       8070.6581     -0.36550000       1.8175000      0.92200010       342.73700       1.9440169     0.012824790
       14.999999       290.61558       99623.236       8096.7202     -0.13350000       1.6992500      0.32175000       343.37400       2.0967317     0.013443470
       20.000012       290.64439       99621.514       8111.5752      0.14375000       3.1175000     -0.38925000       342.20500       1.9479810     0.016604543
       24.999985       290.76063       99615.882       8110.7212      0.12800000       3.8712500     -0.46100000       341.63800       2.0096746     0.015357006
       29.999998       290.77492       99611.128       8100.5951      0.71950000       2.7462500      0.21350000       341.89300       1.9685208     0.013614316
       35.000011       290.67968       99603.265       8064.3651     -0.10750000       2.0467500      0.46100000       342.96800       2.0140497     0.012048249
       39.999984       290.64968       99595.360       8052.8815     -0.13425000       3.4970000      0.13675000       342.40700       1.9875853     0.016344447
       45.999992       290.53325       99581.737       8036.8924      0.65200000       3.3920000     -0.26525000       342.12300       2.2310550     0.018573224
       51.000005       290.51991       99578.158       8040.8985     -0.21850000       1.8935000      0.55775000       343.15300       2.0395767     0.011636228
       55.999978       290.65763       99574.888       8080.9326     -0.25400000       2.0522500      0.28575000       343.20800       1.9445432     0.015231291
       60.999991       290.71691       99578.504       8109.9260       1.0882500       2.1012500      0.21575000       342.44900       1.9462753     0.013984752
       66.000004       290.76653       99597.307       8142.0576      0.88575010       2.6342500      0.31775000       342.43400       2.0249990     0.013455970
       70.999977       290.81575       99608.309       8171.3207      0.33050000       2.5910000      0.65475000       342.03400       2.0769223     0.014971063
       75.999990       290.82003       99622.234       8195.3680      0.30300000       2.0225000     0.062750000       342.05000       1.9890677     0.013119071
       81.000003       290.85108       99628.673       8224.8567     -0.14725000       1.5252500      0.24875000       342.53200       2.0102297     0.012627333
       85.999976       290.88019       99626.181       8245.2862     -0.27050000       3.3682500     -0.41325000       341.75800       1.9395175     0.028064902
       90.999989       290.95325       99626.081       8285.4555     -0.25625000       3.0170000      0.38475000       342.12700       2.0041119     0.012915132
       96.000002       291.10582       99624.082       8363.1781     0.087750000       2.4582500    -0.032750000       342.12500       1.9460392     0.015946028
       100.99998       291.17333       99619.941       8401.5872     -0.21825000       1.9592500     -0.49650000       342.05600       1.9557418     0.021375303
       105.99999       291.22271       99614.790       8435.6387      0.62775000       1.5532500      0.10025000       341.89000       1.9714391     0.020614226
       111.00000       291.27050       99609.677       8454.8427      0.89075010       1.7785000      0.36250000       342.01000       1.9517234     0.014916554
       115.99997       291.25807       99598.986       8444.0055     0.092750010       1.8260000    -0.059750000       343.25200       1.9709211     0.020448419
       120.99999       291.24827       99593.414       8423.3505      0.63950000       1.7950000     -0.53450000       342.00100       1.9944929     0.023041862
       126.00000       291.31317       99586.856       8397.9499      0.74900000       2.3137500     -0.61125000       341.76800       1.9567350     0.012255757
       131.00001       291.26760       99588.276       8358.5115      0.86150000       2.5737500     -0.11900000       341.65600       2.1611814     0.012964560
       136.99998       291.08364       99600.074       8285.3429      0.12650000       2.0345000      0.16475000       342.28000       2.0449788     0.020091493
       141.99999       290.95953       99607.463       8214.7612     -0.48500000      0.47750000      0.49975000       343.20400       1.9644529     0.012538499
       147.00001       290.74631       99622.642       8114.8977     -0.43025000       1.8137500     0.096000000       343.27200       2.1636926     0.018452145
       151.99998       290.64060       99629.663       8051.3225     -0.93350010       2.3540000      0.21400000       343.43400       2.0880878     0.018963536
       156.99999       290.60982       99629.721       7983.7230     -0.92750010       1.7477500     -0.35325000       341.51900       1.9563093     0.019052295
       162.00001       290.57677       99631.369       7942.4786     -0.62550000       1.5312500      0.19675000       342.76300       1.9445612     0.019928344
       166.99998       290.61325       99631.564       7950.6537      -2.2730000       1.9382500      0.17575000       342.10200       1.9952332     0.020364045
       171.99999       290.59965       99630.183       7930.5254      -1.5887500       3.4652500     0.069750000       342.64300       1.9394983     0.018894561
       177.00001       290.56314       99630.788       7904.3667     -0.66625010       2.6207500     0.084000010       342.04600       1.9868706     0.011118222
       181.99998       290.54325       99624.674       7884.6983    -0.059500000       1.3035000    -0.056500000       342.55700       1.9887274     0.018445276
       186.99999       290.53080       99612.003       7863.9958     -0.57975000       1.2115000     0.024750000       342.27900       1.9697413     0.018607085
       192.00000       290.48668       99601.635       7838.2094      -1.8025000       2.5340000     -0.73075000       341.35500       2.0400938     0.012278957
       196.99998       290.38363       99580.141       7777.9659     -0.53125000       3.6965000     -0.47450000       341.48400       1.9782505     0.023465356
       201.99999       290.38422       99575.333       7793.0888     -0.28975000       3.0540000      0.55700000       342.36900       2.0127121     0.019032854
       207.00000       290.42395       99580.158       7857.1951      -1.6760000       3.0642500    -0.059250000       341.75500       1.9852288     0.020576570
       211.99998       290.45139       99585.665       7896.5017      -1.5190000       2.9322500     -0.26750000       341.24900       1.9590894     0.019718249
       216.99999       290.55889       99605.155       7949.5355      -1.1260000       2.9140000    -0.065250000       341.32200       1.9412593     0.024783223
       223.00000       290.64829       99617.144       8075.0474     -0.87850000       2.5635000     -0.31425000       341.39800       1.9796033     0.022862052
       228.00001       290.68264       99624.338       8200.7500     -0.87575010       2.2267500     -0.40300000       341.69200       2.0398272     0.010241071
       232.99998       290.72299       99629.119       8296.9998     -0.36025000       2.4422500      0.40175000       342.05700       1.9996100     0.014160572
       238.00000       290.79771       99631.336       8475.1825     0.036000000       3.1572500     0.032250000       342.20000       1.9847811     0.013826369
       243.00001       290.82570       99631.162       8541.2214     0.083500010       2.1482500     -0.18750000       341.66900       2.0817560     0.019142207
       247.99998       290.80035       99629.220       8493.4573     -0.16525000       2.0445000     -0.18050000       342.09900       1.9732761     0.016601946
       253.00000       290.80046       99622.363       8495.7332      0.71675000       1.5977500      0.35825000       342.32300       2.0062119     0.011955096
       258.00001       290.78943       99610.029       8487.0202       1.4170000       3.3387500     -0.45475000       341.28500       2.0276933     0.015543556
       262.99998       290.80595       99599.515       8480.7431       1.3857500       3.3552500    -0.097500000       341.83600       1.9542021     0.021153193
       267.99999       290.84109       99579.934       8483.6430       1.3342500       2.6020000     0.084250000       341.60300       2.0832282     0.015210175
       273.00001       290.86127       99575.168       8464.6034       1.0450000       2.4542500     -0.25775000       341.52300       1.9216707     0.022512229
       277.99998       290.88816       99578.134       8407.7730       1.1712500       2.1495000      0.10150000       341.31600       1.9288443     0.014685879
       282.99999       290.91843       99581.138       8409.2102      0.72950010       1.2012500    -0.072750000       341.30500       1.9944587     0.023070862
       288.00001       290.94265       99591.100       8434.1158       1.2305000       1.6715000      0.36300000       341.88900       2.0041895     0.012143941
       292.99998       290.96264       99600.725       8445.8101      0.56375000       1.0902500      0.31325000       342.76600       1.9731972     0.021807110
       297.99999       291.02172       99614.087       8522.1394    -0.047750000       1.7925000     -0.53075000       341.33000       2.0459553     0.013668380
       303.00001       291.00283       99619.796       8501.6830  -0.00025000000       1.3160000     -0.21900000       342.17200       1.9614006     0.013944452
       307.99998       290.90516       99628.272       8391.6371     -0.57875000       2.1637500     -0.14975000       342.26500       1.9563374     0.021098326
       313.99999       290.87828       99626.343       8349.7132     -0.28450000       1.0807500     -0.34950000       341.92400       2.0173428     0.012690412
       319.00000       290.84888       99614.061       8307.4536     -0.70850000       1.5555000     -0.27050000       341.45200       2.1062871     0.012327437
       324.00001       290.82787       99603.306       8270.1302     -0.60150000       1.6387500     -0.23200000       341.31600       1.9565014     0.014963478
       328.99999       290.86487       99584.283       8275.6041    -0.085500000       1.8452500    -0.040250000       342.88400       1.9727096     0.018759124
       334.00000       290.83729       99579.806       8244.9077    -0.088250000       2.0310000     -0.30300000       341.31300       1.9503940     0.027240792
       339.00001       290.74118       99577.705       8167.8936  -0.00050000000       2.0272500     -0.14200000       341.90700       1.9937918     0.013619002
       343.99998       290.72833       99580.153       8144.0190     -0.57400000       1.3645000     -0.35200000       341.54700       1.9799002     0.020737532
       349.00000       290.72532       99593.788       8132.9127     -0.39175000       1.9365000     -0.20350000       341.37600       1.9141517     0.021409427
       354.00001       290.77122       99601.776       8159.3337     -0.33200000       2.2072500      0.22075000       342.16100       1.8898655     0.014684424
       358.99998       290.88456       99609.560       8218.6224     -0.36050000       1.1150000      0.28725000       343.55200       2.1093665     0.014206838
       364.00000       290.95515       99614.677       8275.0455      0.18700000       2.3650000      0.18500000       342.60600       2.1238929     0.012140782
       369.00001       291.06000       99622.473       8398.1272     -0.22750000       2.5285000     -0.34175000       341.72200       1.9578395     0.022718994
       373.99998       291.08372       99620.911       8394.8911     -0.21625000       1.9702500     -0.40425000       341.78900       1.9490910     0.016228511
       379.00000       291.05658       99613.397       8326.7423     0.028250000       1.6380000      0.14625000       342.07800       2.0743793     0.014044861
       384.00001       291.04790       99603.738       8292.4012     -0.13200000       2.0692500     -0.18750000       341.56500       1.9726698     0.024210477
       388.99998       291.00583       99585.983       8192.5115     -0.29900000       1.7585000      0.23200000       342.41700       2.0962401     0.012383632
       394.00000       290.97602       99577.877       8160.7709     -0.11475000       1.7490000     -0.33675000       342.05100       1.9699617     0.013469896
       399.00001       290.95462       99565.120       8167.9737      0.44100000       1.0867500      0.13650000       342.37800       2.0336399     0.011645845
       404.99998       290.93109       99573.413       8204.2693      0.64100000       1.2135000     -0.55650000       342.58500       2.0269283     0.012285139
       409.99999       290.89402       99594.897       8262.0469      0.48050000       1.7457500     -0.21300000       342.04300       1.9604750     0.011834309
       415.00000       290.88545       99605.038       8274.0041       1.2002500       1.8237500    -0.049500000       342.17600       1.9630561     0.016758323
       419.99997       290.89376       99623.189       8314.1905      0.53725000      0.58600000      0.33950000       343.22400       2.0014878     0.015246440
       424.99999       290.93057       99624.634       8251.6003      0.88550000       1.4230000     -0.37225000       342.20000       1.9649225     0.014257823
       430.00000       290.95096       99622.039       8199.9194      0.32750000       1.9572500     0.049750000       342.80500       1.9408073     0.013023510
       434.99997       291.01522       99614.305       8154.2993      0.24775000       2.0235000     -0.43725000       343.14400       2.0022679     0.013411617
       439.99999       291.01875       99606.620       8095.6753      0.49725000       2.0515000     -0.27050000       342.81100       2.0131823    0.0095190378
       445.00000       290.98530       99596.475       8028.6293      0.67425000       2.3027500     -0.50825000       342.31400       1.9404855     0.012392297
       450.00001       290.90132       99577.265       7935.6342       1.5545000       1.4940000     -0.45850000       341.92600       1.9893451     0.017676525
       454.99999       290.86070       99574.965       7914.5227       1.1652500       2.0900000     -0.11025000       342.24400       1.9727645     0.016502247
       460.00000       290.79340       99577.373       7903.9768       1.0957500      0.77825000      0.37350000       342.12800       1.9893066     0.016305355
       465.00001       290.76944       99596.521       7976.6509      0.60725000       1.2000000      0.23725000       344.26300       1.9989984     0.011260694
       469.99999       290.74917       99606.906       8020.2399      0.51075000       1.0102500     -0.30375000       341.65000       2.0070104     0.013442197
       475.00000       290.72954       99618.926       8076.1245      0.29550000       1.1245000     0.079000000       342.01600       1.9725563     0.015173812
       480.00001       290.69964       99623.426       8093.0951      0.46425000       1.3060000     -0.31475000       341.66300       2.0320583     0.013680616
       484.99998       290.67006       99614.392       8064.6671      0.30950000       1.3742500    -0.064250000       342.18600       1.9575224     0.021310305
       490.00000       290.65027       99610.492       8049.5525      0.14875000       1.5887500     -0.17325000       342.53300       1.9848242     0.014962602
       496.00001       290.60968       99602.382       7997.2433      0.33200000       1.1790000     -0.28925000       341.61600       1.9366278     0.018081858
       500.99998       290.59094       99598.703       7970.2375      0.20275000      0.95125000   -0.0015000000       341.78300       1.9553521     0.021776096
       505.99999       290.58541       99597.374       7957.9521      0.26100000      0.70450000     -0.38900000       342.01900       1.9942260    0.0096229529
       511.00000       290.59654       99599.603       7955.4817      0.14900000      0.36000000     0.038500000       342.31500       1.9756272     0.013097485
       515.99998       290.60626       99609.965       7936.7031      0.81450000      0.18550000      0.31200000       343.93300       1.9117778     0.014227593
       520.99999       290.64847       99611.818       7967.5507      0.39250000      0.40375000      0.40000000       343.67200       1.9280765    0.0087218848
       526.00000       290.75887       99612.913       8068.4708       1.1495000       1.1407500      0.31975000       343.16200       1.9605184     0.010248533
       530.99998       290.81714       99611.502       8125.3920      0.31025000       2.3045000      0.49125000       342.91900       1.9486971     0.014561161
       535.99999       290.83717       99603.420       8183.0112     -0.10100000       1.9922500     0.046000000       342.86300       1.9077140     0.019807190
       541.00000       290.90882       99594.317       8253.1454    -0.066500000       1.9230000     -0.54450010       342.45400       1.9600676     0.012541044
       545.99998       291.01607       99576.903       8343.4725     0.064750000       2.2665000      0.21850000       343.32300       1.9586045     0.011033756
       550.99999       291.06495       99572.463       8365.3752       1.6872500       3.8885000     -0.38450000       342.00800       1.9692574    0.0086930975
       556.00000       291.15107       99569.353       8381.8104       1.8190000       1.5552500      0.61500000       343.30200       1.9344951     0.012687486
       560.99997       291.17655       99573.076       8363.7930      0.47825000       2.1817500      0.18275000       343.32900       1.9357344     0.016331401
       565.99999       291.11760       99600.485       8254.3916       1.7382500       1.9612500      0.82575010       342.65600       1.9612579     0.013801878
       571.00000       291.04547       99609.691       8162.8077       1.6627500       1.9770000      0.21900000       342.63900       1.9007259     0.011318354
       576.00001       290.89329       99614.906       8045.4560       1.6795000       2.2852500     -0.62300000       341.61800       1.9323439     0.018951450
       580.99999       290.82603       99613.210       7972.6234       2.3107500       3.0217500     -0.71575000       342.33400       2.0021164     0.012393037
       586.99999       290.75244       99590.092       7894.2893      0.27175000       1.0232500      0.52850000       343.19100       2.9447458     0.016356149
       592.00001       290.72406       99580.802       7846.6700    -0.068000000       1.8165000     -0.57375000       342.46400       2.0433247     0.013172546
       596.99998       290.80762       99568.200       7852.3858      0.78850000       3.0185000     0.052250000       342.30300       2.9265740     0.012936152
       601.99999       290.81030       99567.495       7831.2186       1.0680000       3.1955000     -0.45100000       342.41400       3.1341826     0.013196332
