MIRICO/SHELL project - Processed LDS file generated on
Sun Jul 09 18:12:38 2017
Time stamp for record start
05/10/2017  15:03:55.0001
Nb of points in the record
         945
Beam position index
       7.0000000
Beam angle (degrees)
       19.305000
Open Path length (m)
       33.730000
****************** Temporal data record ************************
Elapsedtime_sec Temp_K Press_Pa Humidity_ppmv WindX_m/s WindY_m/s WindZ_m/s Speedofsound_m/s CH4vmr_ppmv CH4vmrerror_ppmv  
      0.00000000       290.56830       99620.423       8012.8806    -0.029750000       4.3390000     -0.70950000       342.11500       1.8808868     0.019186123
       6.0000077       290.58608       99620.341       8058.3745     -0.16975000       3.9365000      0.46025000       342.42000       1.7979184     0.033053504
       10.999981       290.59757       99620.379       8073.6127     -0.51700000       2.0552500      0.34725000       342.94100       1.9210551     0.014829507
       15.999994       290.62036       99623.093       8100.5923    -0.082250010       1.6300000     0.097250010       343.10600       1.8698307     0.027057270
       21.000007       290.65163       99620.868       8113.1915     0.055500000       1.8467500      0.97375010       342.64200       1.8535810     0.025592620
       25.999980       290.76742       99615.029       8109.3027      0.16600000       3.6550000     0.013250000       341.90900       1.8667432     0.029408045
       30.999993       290.77188       99610.031       8097.6654      0.72250000       2.4547500      0.62350000       342.24200       1.8618067     0.017511289
       36.000006       290.67368       99601.683       8061.4664      0.44975000       3.0430000      0.74350010       342.87000       1.8022732     0.032338608
       40.999979       290.64367       99593.780       8051.4861     0.078000000       3.2632500      0.37800000       342.43600       1.8765288     0.023659937
       45.999992       290.53325       99581.737       8036.8924       1.1392500       2.2355000      0.13175000       342.24700       1.9485205     0.024763835
       51.000005       290.51991       99578.158       8040.8985     0.032750000       1.5947500      0.42600000       343.31600       1.9321398     0.022802426
       55.999978       290.65763       99574.888       8080.9326     -0.25000000       2.4942500      0.72875010       342.80400       1.8888370     0.024864529
       60.999991       290.71691       99578.504       8109.9260       1.0037500       2.0842500      0.47900000       343.58100       1.8672054     0.024471658
       66.000004       290.76653       99597.307       8142.0576      0.65825000       2.8302500    -0.059750000       341.50800       1.8343780     0.034836518
       70.999977       290.81575       99608.309       8171.3207      0.37050000       2.1672500      0.42625000       342.24000       1.8621190     0.027982988
       75.999990       290.82003       99622.234       8195.3680      0.45075000       1.8047500     0.061000000       342.17300       1.9242971     0.037491680
       81.000003       290.85108       99628.673       8224.8567      0.18300000       1.0360000      0.22100000       342.75200       1.9395391     0.026059108
       85.999976       290.88019       99626.181       8245.2862     -0.50850000       2.8762500     0.026000000       342.04400       1.8571695     0.029792330
       90.999989       290.95325       99626.081       8285.4555    -0.057500000       3.0377500     -0.14500000       341.34800       1.8643407     0.025818899
       96.999997       291.12132       99623.351       8371.8997     -0.18350000       1.8195000      0.18500000       342.41200       1.9008417     0.017647243
       102.00001       291.18384       99618.968       8407.7034      0.14950000       2.1372500      0.22350000       341.81000       2.0399930     0.023576789
       106.99998       291.23428       99613.862       8440.9741      0.40600000       1.2402500     -0.11750000       341.96600       1.8493607     0.027967966
       112.00000       291.27705       99608.513       8456.4370      0.69625000       2.0792500    -0.088000010       341.55600       1.9313207     0.024539570
       117.00001       291.25611       99597.673       8440.7224    -0.050500000       1.6557500     -0.13050000       343.10000       1.9145668     0.017323249
       121.99998       291.24631       99592.596       8417.9483      0.46750000       2.3742500     -0.69250010       342.23300       1.7858997     0.032588124
       127.00000       291.30898       99586.745       8391.2355      0.46125000       2.1062500     -0.48575000       342.32900       1.9183021     0.022328706
       132.00001       291.25110       99589.152       8348.8746       1.1472500       2.8045000     -0.43950000       341.52300       1.8471559     0.022261551
       136.99998       291.08364       99600.074       8285.3429      0.60625000       1.8125000    -0.041750000       342.36400       1.9048150     0.020270341
       141.99999       290.95953       99607.463       8214.7612     -0.50425000       1.3200000      0.59575000       342.75800       1.8612091     0.025477016
       147.00001       290.74631       99622.642       8114.8977      0.26550000       1.9347500      0.20650000       343.35000       1.8497798     0.029868780
       151.99998       290.64060       99629.663       8051.3225     -0.32450000       2.2122500      0.00000000       343.10000       1.8940044     0.034139673
       156.99999       290.60982       99629.721       7983.7230     -0.68175010       1.3410000     -0.43800000       341.38800       1.8562540     0.027072139
       162.00001       290.57677       99631.369       7942.4786      -1.2092500       2.4597500      0.26275000       342.76100       1.9053912     0.035135940
       166.99998       290.61325       99631.564       7950.6537      -1.9470000       2.9235000      0.30975000       342.13900       1.9239077     0.022334306
       171.99999       290.59965       99630.183       7930.5254     -0.97225000       4.1045000    -0.020750000       341.56000       1.8440379     0.029933517
       177.00001       290.56314       99630.788       7904.3667    -0.048500000       2.4295000      0.69025000       342.44900       1.9659843     0.036410352
       181.99998       290.54325       99624.674       7884.6983    -0.032500000       1.1402500    -0.012250000       342.80500       1.8478005     0.033345554
       187.99999       290.52297       99610.026       7858.9181      -1.3002500       1.8745000     0.081250000       342.16800       1.8341898     0.027445470
       193.00000       290.47636       99599.417       7832.9333      -1.8762500       2.6492500       1.0172500       342.18800       1.8972893     0.024565842
       198.00001       290.38068       99578.568       7778.3086      -1.4540000       2.8035000       1.0517500       342.08600       1.7745293     0.041058848
       202.99999       290.38894       99575.288       7800.1421     -0.22875000       1.6862500      0.39200000       342.54100       1.8868709     0.029409990
       208.00000       290.42746       99580.865       7864.0906      -1.0807500       3.3902500     -0.19350000       341.59200       1.8302931     0.032905810
       213.00001       290.45983       99587.359       7905.8193      -1.2310000       2.7215000     -0.20275000       341.30500       1.8371334     0.029244262
       217.99998       290.57502       99607.397       7968.2313     -0.86575000       2.8155000    -0.034250000       341.33400       1.8734089     0.040940584
       223.00000       290.64829       99617.144       8075.0474      -1.0340000       3.2695000     -0.29750000       341.58900       1.8774471     0.029049057
       228.00001       290.68264       99624.338       8200.7500      -1.1400000       2.5240000     -0.22950000       341.59500       1.9391458     0.030920947
       232.99998       290.72299       99629.119       8296.9998      0.70775000       2.3475000    -0.042250000       341.77400       1.8874208     0.032210661
       238.00000       290.79771       99631.336       8475.1825      -1.0287500       2.7710000     -0.23725000       342.12300       1.7987585     0.031903125
       243.00001       290.82570       99631.162       8541.2214     0.051750000       2.3005000     -0.25825000       341.60300       1.8523843     0.032213878
       247.99998       290.80035       99629.220       8493.4573   -0.0092500000       2.2477500     -0.25650000       341.86400       1.8613883     0.031645090
       253.00000       290.80046       99622.363       8495.7332     -0.21475000       1.6577500      0.40425000       342.42400       1.8793485     0.026851280
       258.00001       290.78943       99610.029       8487.0202       1.1200000       3.3622500     -0.53025000       341.29500       2.0643458     0.028390286
       262.99998       290.80595       99599.515       8480.7431       1.2902500       3.1842500    -0.017250000       341.35600       1.9096509     0.025645615
       267.99999       290.84109       99579.934       8483.6430      0.46875000       2.8652500      0.14450000       341.89800       1.8912754     0.033337043
       273.00001       290.86127       99575.168       8464.6034       1.3127500       2.1015000     -0.13700000       341.67200       1.9065308     0.027015731
       278.99998       290.89422       99578.435       8406.4279      0.26650000       2.1057500     -0.41350000       341.35900       1.9146868     0.028948788
       283.99999       290.92448       99582.189       8411.9511      0.43925000       1.3497500     -0.23925000       341.37800       1.9400835     0.014997984
       289.00000       290.94667       99592.927       8435.8582       1.1435000       1.6047500      0.53575000       341.54100       1.9515212     0.021975243
       293.99997       290.96660       99602.797       8449.0446      0.67400000       1.4630000    0.0042500000       342.73700       1.8471278     0.030010330
       298.99999       291.02090       99615.427       8521.4780     0.025750000       1.7165000     -0.16925000       341.34100       1.8563901     0.025282240
       304.00000       290.99462       99620.642       8492.4577     -0.31050000       1.2857500     0.067750010       342.34000       1.8688979     0.029765513
       309.00001       290.89945       99628.564       8383.6791      -1.4735000       2.0477500     -0.37600000       341.64100       1.8098191     0.031793884
       313.99999       290.87828       99626.343       8349.7132     -0.41800000       1.5385000      0.17000000       342.83200       1.9017354     0.025967851
       319.00000       290.84888       99614.061       8307.4536     -0.88400010       1.8185000     -0.14350000       341.46800       1.8991313     0.029395947
       324.00001       290.82787       99603.306       8270.1302     -0.64250000       1.7017500     -0.21750000       341.51500       1.8189460     0.033941791
       328.99999       290.86487       99584.283       8275.6041     -0.52150010       1.8037500   -0.0097500000       341.62100       1.9257189     0.021263330
       334.00000       290.83729       99579.806       8244.9077     -0.10875000       1.7627500     -0.40075000       341.35600       1.9194663     0.015374410
       339.00001       290.74118       99577.705       8167.8936    -0.040000000       1.9082500     -0.46775000       341.77600       1.9538574     0.016590905
       343.99998       290.72833       99580.153       8144.0190     -0.34100000       1.1617500     -0.70250000       341.39900       1.9181545     0.016206285
       349.00000       290.72532       99593.788       8132.9127     -0.71225010       1.8715000     -0.18100000       341.49500       1.8558197     0.032222176
       354.00001       290.77122       99601.776       8159.3337     -0.45275000       2.5187500     -0.13050000       341.52000       1.9175416     0.017749931
       358.99998       290.88456       99609.560       8218.6224     -0.35450000      0.69050000      0.48825000       343.28300       1.8685160     0.022902513
       364.99999       290.96937       99615.557       8288.0343     0.054000000       2.0510000     -0.14700000       341.70100       1.9208790     0.022252013
       370.00000       291.06775       99622.563       8401.5718     -0.33875000       2.4310000     -0.16050000       341.67800       1.8550965     0.015612325
       374.99998       291.05460       99618.455       8344.4175     -0.53675000       2.0597500      0.32275000       342.13000       1.9641073     0.015075305
       379.99999       291.05584       99611.762       8320.9609      0.16900000       1.5900000     0.077500000       342.36300       1.9072115     0.028340714
       385.00000       291.02965       99594.237       8236.3168      0.19575000       1.9602500     -0.10400000       341.72800       1.8821981     0.027991490
       389.99998       290.99988       99584.165       8184.1213     0.052000000       1.3667500     -0.27175000       342.34400       1.8540196     0.034750594
       394.99999       290.97034       99567.469       8161.5285     -0.74975000       1.6000000    -0.049250000       342.40500       1.9361536     0.017129337
       400.00000       290.95069       99565.517       8171.8070    -0.025500000      0.89275000      0.25850000       342.40000       1.9038060     0.025273569
       404.99998       290.93109       99573.413       8204.2693      0.23650000       1.5970000     -0.47675000       342.30300       1.8821382     0.024473655
       409.99999       290.89402       99594.897       8262.0469      0.79150000       1.5200000    -0.056750000       342.27600       1.8122733     0.028552904
       415.00000       290.88545       99605.038       8274.0041       1.1065000       1.6017500     -0.18800000       342.27600       1.9609390     0.025025298
       419.99997       290.89376       99623.189       8314.1905      0.82925000      0.73025010      0.16925000       343.26100       1.8739476     0.028335744
       424.99999       290.93057       99624.634       8251.6003      0.89775000       1.3510000      0.13050000       342.88500       1.8294998     0.029439979
       430.00000       290.95096       99622.039       8199.9194      0.31450000       2.1972500     -0.29600000       342.18500       1.8012452     0.038025102
       434.99997       291.01522       99614.305       8154.2993      0.65175000       2.7202500     -0.19625000       342.53800       1.9525332     0.024840431
       439.99999       291.01875       99606.620       8095.6753      0.40075000       1.8647500     -0.16600000       342.48000       1.8634495     0.024564182
       445.00000       290.98530       99596.475       8028.6293      0.92700000       2.2315000     -0.32050000       342.77700       1.9057178     0.015672111
       450.00001       290.90132       99577.265       7935.6342       1.3645000       1.7962500      0.26125000       342.70800       1.8136347     0.020599692
       455.99998       290.83387       99574.925       7906.1689      0.76575010       1.7425000      0.59775000       342.96200       1.7951553     0.023161035
       460.99999       290.78453       99578.613       7906.5745      0.95550010      0.75700000      0.29325000       342.29500       1.8701794     0.022203683
       466.00001       290.76537       99598.808       7986.0192      0.27700000       1.2805000     0.040500000       343.35900       1.9015430     0.029187913
       470.99998       290.74515       99608.668       8027.9834      0.51550000      0.81550000     -0.41025000       341.61400       1.9736983     0.015034732
       475.99999       290.72357       99620.321       8081.5079      0.45700000      0.83125000      0.17275000       341.96800       1.8981701     0.011750034
       481.00001       290.69364       99623.584       8093.5110      0.46100000       1.4892500     -0.17125000       341.74500       1.8549040     0.026529994
       485.99998       290.66610       99613.610       8062.2454      0.67850010       1.7120000     -0.59500000       342.39900       1.7876119     0.024855633
       490.99999       290.64631       99609.715       8045.6289      0.21200000       1.2312500     -0.23975000       342.64400       1.7745813     0.025333025
       496.00001       290.60968       99602.382       7997.2433      0.34000000       1.1820000     -0.20750000       342.00900       1.9045846     0.027061847
       500.99998       290.59094       99598.703       7970.2375      0.34750000      0.93475000     -0.10525000       342.07500       1.7770015     0.024214161
       505.99999       290.58541       99597.374       7957.9521      0.30375000      0.75200000     -0.26875000       341.95900       1.8871479     0.014298965
       511.00000       290.59654       99599.603       7955.4817      0.15625000      0.14425000     0.068250000       342.38400       1.7499746     0.024478146
       515.99998       290.60626       99609.965       7936.7031       1.3325000      0.32375000    0.0090000010       343.16500       1.7792247     0.021577054
       520.99999       290.64847       99611.818       7967.5507      0.52100000      0.47525000      0.49375000       342.93400       1.8039324     0.019541152
       526.00000       290.75887       99612.913       8068.4708       1.1872500       1.4607500     -0.17725000       342.90600       1.8000854     0.014717351
       530.99998       290.81714       99611.502       8125.3920  -0.00050000000       2.3682500     -0.40475000       342.63300       1.8364530     0.031126962
       535.99999       290.83717       99603.420       8183.0112      0.16675000       2.2970000     0.054000000       342.78500       1.8018452     0.035402193
       541.00000       290.90882       99594.317       8253.1454      0.30375000       2.4347500     -0.91875000       342.49400       1.9083455     0.037586842
       547.00001       291.02684       99575.611       8350.0883     -0.21175000       2.3840000      0.24250000       343.32500       1.8706030     0.029750399
       551.99998       291.07323       99572.180       8366.3937       1.1792500       3.1555000     -0.79100000       342.10000       1.7849109     0.023663431
       557.00000       291.16020       99569.501       8381.6474       1.0697500       1.2355000      0.39650000       343.17000       1.7833506     0.028530837
       562.00001       291.17560       99574.715       8355.0354      0.66875000       1.7365000    -0.085500000       343.09500       1.8519381     0.038184443
       566.99998       291.10514       99602.819       8236.3882       2.0140000       1.7735000      0.50825000       342.75600       1.8715772     0.038109485
       572.00000       291.02809       99610.794       8144.0323       1.2317500       2.1837500      0.25275000       343.53700       1.9732042     0.031264681
       577.00001       290.87787       99615.158       8029.5972       2.3532500       1.7465000     -0.35100000       342.88200       1.8754622     0.036711289
       581.99998       290.81553       99611.984       7959.9806       1.7877500       3.2285000     -0.38600000       342.30600       1.9464707     0.039558506
       586.99999       290.75244       99590.092       7894.2893       1.0505000       1.0122500      0.70500000       343.31400       2.0998438     0.038731914
       592.00001       290.72406       99580.802       7846.6700      0.76775000       2.5197500      0.24700000       342.56700       2.1550727     0.029214050
       596.99998       290.80762       99568.200       7852.3858      0.15425000       3.9647500      0.19350000       342.26600       4.2093703     0.036663665
       601.99999       290.81030       99567.495       7831.2186       1.1982500       3.0702500     -0.19650000       342.56300       3.4327962     0.017993907
