MIRICO/SHELL project - Processed LDS file generated on
Thu Jul 20 19:02:02 2017
Time stamp for record start
05/12/2017  10:37: 7.0001
Nb of points in the record
         984
Beam position index
       1.0000000
Beam angle (degrees)
      -18.455000
Open Path length (m)
       34.890000
****************** Temporal data record ************************
Elapsedtime_sec Temp_K Press_Pa Humidity_ppmv WindX_m/s WindY_m/s WindZ_m/s Speedofsound_m/s CH4vmr_ppmv CH4vmrerror_ppmv  
      0.00000000       287.65721       98803.085       15096.698       4.1500000     -0.47275000     -0.22150000       340.70700       2.1228226     0.022183118
       9.9999860       287.65156       98786.780       15125.874       3.9800000      -2.3627500     -0.14000000       340.69300       2.0191175     0.011474559
       14.999999       287.56663       98790.345       15041.446       5.0417500      -2.2375000   -0.0070000000       340.74700       2.0020206     0.010117681
       19.999972       287.53079       98790.364       14989.634       5.0862500      -2.9770000      0.28100000       340.82900       2.0566626     0.012212674
       24.999985       287.49182       98787.599       14895.231       2.0217500     -0.76050000     -0.17150000       340.92700       1.9873919     0.011073486
       29.999998       287.48892       98790.263       14869.111       4.7395000      -1.7010000      0.50625000       340.61800       2.1480478     0.016891026
       34.999971       287.56427       98796.582       14910.544       2.6085000      -1.1227500      0.11600000       340.70000       2.0500900     0.013130227
       39.999984       287.55672       98802.052       14903.761       2.4690000      0.40000000    -0.028000000       340.84400       2.1093848     0.014438000
       44.999997       287.51897       98812.979       14913.050       2.0082500      0.35175000      0.59100000       340.94100       1.9761477     0.011750919
       49.999970       287.49543       98818.294       14909.086       3.0002500      -1.0120000      0.38750000       340.73900       2.0592130     0.012847934
       54.999983       287.40978       98819.781       14857.022       3.5317500     -0.16125000      0.21800000       340.86700       2.0106816     0.010828254
       59.999996       287.37689       98821.430       14836.347       2.3777500    -0.011000000      0.60875000       340.85700       2.0242042     0.011668743
       65.000010       287.40002       98820.378       14847.283       3.7360000     -0.15375000      0.80300000       340.76200       2.0633235     0.011831290
       69.999982       287.40002       98820.419       14839.297       3.3630000     -0.47825000     -0.50725000       340.70900       2.0174528     0.011964033
       75.999990       287.39985       98821.502       14826.085       3.2750000      0.67900000      0.14550000       340.86500       2.0404961     0.010587073
       81.000003       287.39990       98819.884       14806.104       4.6355000       1.2225000    -0.051500000       340.71700       2.0228634     0.011453671
       85.999976       287.40080       98818.433       14765.934       4.5407500      0.47100000      0.12350000       340.74500       2.0123068     0.012834226
       90.999989       287.40115       98813.207       14757.155       2.9542500     -0.65075000      0.42500000       340.90000       2.1952613     0.025988835
       96.000002       287.41141       98802.809       14755.216       3.3485000     -0.40400000     -0.17525000       340.76800       1.7981935     0.027954402
       100.99998       287.39533       98795.779       14757.914       2.9777500     -0.64625000    -0.026250000       340.82200       2.0980965     0.014625894
       105.99999       287.36892       98785.233       14804.945       2.2205000     -0.97125010     0.016250000       340.64300       2.0275034     0.010242961
       111.00000       287.33285       98782.225       14789.070       1.5022500     -0.18500000     -0.11525000       340.81400       2.0763135     0.013302683
       115.99997       287.25863       98781.270       14737.005       3.5395000     -0.37800000      0.60950010       340.87900       2.0759604     0.012966473
       120.99999       287.22477       98786.693       14696.507       4.0812500     -0.59775000     -0.47500000       340.55200       2.0898976     0.012687726
       126.00000       287.18971       98800.164       14612.440       1.8830000     -0.39350000      0.49700000       340.84200       2.0862645     0.013635261
       130.99997       287.19266       98810.859       14582.437       2.4640000     -0.45375000      0.52325000       340.86400       2.0004256     0.010177444
       135.99999       287.25289       98828.338       14594.038       4.5135000      0.40850000      0.87100010       340.67300       2.0221755     0.011409506
       141.00000       287.25661       98836.592       14573.596       4.6315000      -1.4665000     -0.25250000       340.52800       2.1070926     0.012012434
       145.99997       287.25685       98842.319       14552.555       5.0890000     -0.37175000     -0.17825000       340.63400       2.0587360     0.011256838
       150.99999       287.25080       98841.884       14542.858       3.8332500     -0.78750000     0.058000000       340.69000       2.0880151     0.010711361
       156.00000       287.20075       98831.811       14514.191       3.4362500      -1.4447500     -0.22600000       340.58000       2.0927377     0.016617502
       160.99997       287.18706       98827.826       14513.717       3.6512500      0.41525000      0.37450000       340.72800       2.0999304     0.013161856
       166.99998       287.20899       98820.747       14566.081       3.9135000     -0.32875000     -0.32700000       340.67700       2.0993665     0.013256233
       171.99999       287.18979       98816.658       14552.365       3.2952500     -0.67275010     -0.17250000       340.67000       2.0529184     0.011783696
       177.00001       287.15426       98817.258       14515.281       2.6472500      -1.3552500     0.046500000       340.77500       2.1991666     0.022782598
       181.99998       287.13435       98811.410       14491.065       4.2302500     -0.88625000     -0.11525000       340.57300       2.0727569     0.012671656
       192.00000       287.10489       98794.445       14428.867       4.5220000     -0.34050000     -0.26650000       340.73500       2.1123363     0.014267287
       196.99998       287.19255       98781.493       14488.850       4.3212500     -0.31975000      0.52975000       340.47200       2.0850468     0.014388835
       201.99999       287.23218       98784.732       14511.057       3.6510000     -0.22525000     -0.30400000       340.59700       2.0078601     0.011042431
       207.00000       287.30564       98798.376       14553.842       3.3432500      -1.7505000     -0.11275000       340.71600       1.9269841     0.010640153
       216.99999       287.29097       98819.649       14552.023       4.9990000      -1.3415000      0.48850000       340.60700       2.0185866     0.013581509
       222.00000       287.31006       98827.885       14585.423       5.9837500      -1.8467500     -0.44025000       340.38900       1.9203242     0.018614161
       226.99998       287.35473       98829.359       14654.709       4.4722500      -2.6305000      0.70450000       340.58500       1.9960436    0.0092749480
       231.99999       287.35601       98833.329       14678.883       3.7507500      -2.3750000      0.39575000       340.34400       2.1226263     0.011211619
       237.00000       287.35633       98842.628       14707.494       2.8890000      -1.1655000     0.089750010       340.53700       2.0089865    0.0087699874
       241.99997       287.34764       98841.155       14721.485       3.4730000      -2.1720000     -0.32275000       340.51200       2.0509171     0.012765553
       246.99999       287.28773       98832.191       14689.571       4.0697500      -1.2605000      0.13000000       340.62300       2.1059076     0.014224145
       252.00000       287.29491       98826.423       14706.560       3.1812500      0.11500000      0.13975000       340.44100       2.0297823     0.010126869
       258.00001       287.34922       98815.365       14760.629       3.2060000      -1.1417500     -0.77875010       340.41000       2.1180603     0.014511723
       262.99998       287.36947       98807.296       14780.977       4.2090000      -1.6385000     -0.21400000       340.56000       2.1045469     0.014242093
       267.99999       287.40536       98799.522       14809.824       2.6975000     -0.23675000      0.18125000       340.70200       1.9662236     0.012265638
       273.00001       287.38502       98785.811       14760.930       4.6022500     -0.83500000     -0.35600000       340.55800       2.0775210     0.015059728
       277.99998       287.39357       98785.845       14759.885       4.1947500      -1.0360000     -0.25500000       340.51000       2.0673460     0.010715208
       282.99999       287.43041       98812.971       14779.103       4.0282500     -0.77925000     -0.10900000       340.46600       1.9422327     0.012619342
       288.00001       287.45018       98818.478       14797.865       3.7835000      0.15525000      0.19250000       340.50500       2.0381828     0.010244844
       292.99998       287.48505       98814.771       14844.851       2.7092500     -0.66325000      0.40375000       340.47800       1.9303609     0.011873525
       297.99999       287.50621       98817.150       14902.283       1.8397500     -0.18600000      0.82025000       340.88900       2.0432087     0.011124954
       303.00001       287.51508       98815.835       14965.132       4.3375000     -0.73350010     -0.16000000       340.59600       2.0672230     0.012362014
       307.99998       287.51380       98796.170       15037.040       2.4815000      -1.1437500     0.095000010       340.78000       2.0241650     0.010161304
       312.99999       287.47095       98797.987       15055.094       3.1100000      -1.5795000      0.37925000       340.60900       2.1421954     0.025285490
       318.00001       287.40038       98818.082       15080.647       3.2607500      -1.6330000     -0.20875000       340.57300       2.1048203     0.014674903
       322.99998       287.31525       98809.511       14994.756       3.0840000     -0.37950000      0.34525000       340.73500       1.9872902     0.010421412
       327.99999       287.28060       98805.567       14936.335       4.4897500      -1.7410000     -0.17575000       340.64600       2.0302617     0.011336248
       333.00000       287.33005       98794.739       14879.706       3.2557500     -0.40050000      0.51575010       341.01400       2.0048383     0.013160702
       337.99998       287.34970       98788.407       14827.299       2.9545000     -0.54025000      0.40150000       340.85600       1.9996338     0.010541238
       342.99999       287.36930       98785.742       14780.354       3.7905000      0.94850000     -0.50975000       340.50900       1.9940054     0.010391349
       349.00000       287.40263       98789.300       14726.426       4.4015000      0.11950000     -0.50800000       340.49800       2.0134436     0.010728579
       353.99997       287.46842       98797.661       14769.090       3.2005000      -1.0000000      0.12075000       340.72200       2.0652637     0.013514641
       358.99998       287.50873       98805.987       14804.087       4.1722500       1.1092500      -1.3737500       340.57400       2.0060130     0.011985561
       364.00000       287.59523       98827.219       14916.423       2.0607500      0.27700000      0.79650000       341.10600       2.0285782     0.010379998
       368.99997       287.62195       98834.693       14973.548       3.8312500     -0.20350000     -0.40225000       340.66400       2.1285104     0.015155162
       373.99998       287.56581       98832.852       14964.010       2.7810000     -0.35750000      0.75325010       340.98500       2.0423006     0.013453202
       379.00000       287.54598       98831.411       14998.263       4.1402500    -0.098500010    0.0022500000       340.55600       2.0308199     0.010870495
       384.00001       287.51005       98821.740       15045.326       3.6660000      0.43450000      0.19775000       340.72100       2.0382440     0.015943877
       388.99998       287.49146       98813.799       15081.489       2.3427500     -0.47925000      0.52025000       341.02400       2.0701618     0.013966712
       394.00000       287.51441       98804.521       15182.485       2.9997500     -0.35825000     0.066500000       341.06600       2.0465671     0.011737782
       399.00001       287.50281       98798.581       15193.849       3.5732500     -0.65775000     -0.43325000       340.55700       2.0910074     0.013070564
       403.99998       287.45247       98788.185       15118.823       3.4487500     -0.63225000     0.064000000       340.72500       2.0039479     0.012841170
       408.99999       287.44392       98787.852       15077.562       3.1115000    -0.078250010     -0.22650000       340.72200       1.9645771     0.012794640
       414.00001       287.41603       98797.968       14963.662       3.3400000     -0.11775000     -0.72875010       340.53600       2.0212493     0.010758761
       418.99998       287.43913       98806.273       14925.685       2.8037500      -1.2735000      0.18500000       340.99400       2.0752849     0.014143297
       423.99999       287.55834       98824.164       14958.674       2.2810000      -1.2660000      0.50625000       341.16500       2.0206240     0.011267069
       429.00001       287.61638       98833.695       14981.360       2.6390000    -0.090000000      0.20575000       341.19400       2.0904312     0.013050929
       433.99998       287.69551       98842.738       15060.102       3.5297500      -1.8130000    -0.010000000       340.75000       2.0114527     0.011751693
       439.99999       287.72182       98842.298       15099.523       2.0475000     -0.86425010      0.38525000       340.96000       2.0892089     0.016211472
       445.00000       287.64962       98831.570       15093.099       2.9832500      -1.0445000     -0.63000010       341.02000       2.0719776     0.013206748
       449.99997       287.64371       98822.839       15121.276       2.3987500       1.1192500      0.28300000       341.44000       2.0586424     0.012039746
       454.99999       287.63040       98803.925       15128.969       2.8365000     -0.13425000      0.34100000       341.19500       1.8921500     0.019656632
       460.00000       287.64769       98795.007       15177.524       2.0060000     -0.46850000    -0.068000000       341.27400       2.0443875     0.011219492
       464.99997       287.73354       98787.525       15296.901       2.7692500      0.19125000     -0.25300000       340.87800       2.0872688     0.014764224
       469.99999       287.76938       98788.497       15360.312       3.4257500     -0.12375000     -0.21650000       340.63600       2.1566319     0.016742181
       475.00000       287.76861       98799.028       15416.868       3.3342500      0.18675000      0.83825000       341.27200       2.0664965     0.013942456
       479.99997       287.81191       98807.677       15461.457       1.8097500      0.11375000     0.067750010       341.06400       2.1623818     0.023590250
       484.99998       287.87420       98826.161       15469.256       2.7510000     -0.37375000     -0.25600000       341.22100       1.9954907     0.012104952
       490.00000       287.91426       98834.981       15490.912       2.8855000     -0.64850000    -0.044500000       340.98000       2.0524479     0.012582017
       494.99997       288.00189       98841.728       15535.651       2.8167500     -0.73150000      0.71900000       341.21900       2.0422991     0.013436949
       499.99998       288.02113       98842.239       15539.038       2.7457500      -1.1790000     0.020000000       341.23100       2.1148647     0.020544462
       505.00000       287.97463       98836.403       15521.194       4.4502500      0.18050000     -0.15300000       340.96600       2.1156542     0.014584934
       509.99997       287.94100       98828.276       15494.141       3.3745000      0.12775000    -0.017250000       340.92700       2.0241828     0.011498134
       514.99998       287.85385       98809.748       15422.843       3.5245000      0.49550000     -0.19800000       340.98500       2.1282148     0.022748426
       520.00000       287.83147       98800.562       15382.644       2.2355000     -0.20575000     -0.21575000       341.05000       2.0677829     0.019367892
       526.00000       287.86549       98788.045       15366.355       2.9155000     -0.14900000      0.14450000       341.30000       1.9684670     0.011785880
       530.99998       287.83927       98787.247       15306.259       2.6752500      0.30550000     0.012250000       341.13200       1.9818919     0.012008773
       535.99999       287.79287       98795.323       15197.090       3.1937500      0.67800000     0.057000000       341.04400       2.0480353     0.012269480
       541.00000       287.79948       98804.237       15170.351       4.3432500      0.18825000      -1.0922500       341.07200       2.1425285     0.017478511
       545.99998       287.75281       98825.171       15122.169       3.8965000     -0.22200000     -0.25725000       340.75500       2.0043902     0.012749515
       550.99999       287.81374       98830.691       15155.954       3.0760000      0.44350000      0.72800000       340.81400       2.0544637     0.011152849
       556.00000       288.00335       98835.145       15299.878       2.7370000       1.8535000      0.13175000       341.12200       2.0261613     0.012879446
       560.99997       288.12233       98830.418       15403.535       2.5705000     -0.17750000      0.22800000       341.28500       2.0164280     0.012466434
       565.99999       288.30396       98807.792       15524.922       3.2532500     -0.91775010     -0.30575000       341.38800       1.9967376     0.014561625
       571.00000       288.35292       98799.081       15643.008       4.0097500     -0.37575000     -0.69900010       340.96900       1.9483770     0.013932464
       575.99997       288.30440       98790.470       15774.994       2.6785000      -1.0402500      0.13750000       341.20900       2.0029308     0.011758368
       580.99999       288.30773       98786.362       15886.355       3.9937500       1.1192500     -0.24150000       340.77900       1.9580773     0.013867036
       586.00000       288.26672       98787.023       16042.444       1.5710000     -0.44650000     -0.23775000       341.55000       2.0603043     0.012792748
       590.99997       288.22655       98791.980       16064.577       4.7007500     0.055250000      0.37850000       341.26800       1.8721081     0.025842101
       595.99999       288.22573       98800.743       16017.501       3.4167500     -0.44450000     -0.48275000       340.75800       2.0084429     0.011819995
       601.00000       288.18376       98809.934       15950.510       3.2900000      0.63775000     0.030000000       340.90000       2.1510615     0.012436188
       605.99997       288.05923       98830.787       15764.649       3.4947500      0.10875000     -0.30850000       341.24000       2.6476911     0.012730941
       610.99999       288.01195       98835.626       15653.246       5.0840000     -0.27700000    -0.041500000       340.93700       2.9752140     0.014332012
       616.99999       288.00652       98834.873       15549.967       4.3792500      0.36975000      0.86525010       340.86200       2.6057358     0.012691647
