MIRICO/SHELL project - Processed LDS file generated on
Fri Jul 21 04:59:32 2017
Time stamp for record start
05/12/2017  10:37: 7.0001
Nb of points in the record
         984
Beam position index
       2.0000000
Beam angle (degrees)
      -8.6380000
Open Path length (m)
       64.850000
****************** Temporal data record ************************
Elapsedtime_sec Temp_K Press_Pa Humidity_ppmv WindX_m/s WindY_m/s WindZ_m/s Speedofsound_m/s CH4vmr_ppmv CH4vmrerror_ppmv  
      0.00000000       287.65721       98803.085       15096.698       3.6060000      -2.8242500      0.14125000       340.76200       1.9022700    0.0086296228
       4.9999729       287.66904       98791.692       15136.930       4.3817500      -2.7737500    -0.051000000       340.70400       1.8899469    0.0091886295
       9.9999860       287.65156       98786.780       15125.874       5.7615000      -2.3080000      0.37425000       340.57600       1.9126657    0.0098045358
       14.999999       287.56663       98790.345       15041.446       5.0145000      -2.6432500      0.24325000       340.61400       1.8534118     0.011234353
       19.999972       287.53079       98790.364       14989.634       4.6507500      -1.8935000      0.76925000       340.72800       1.8999996    0.0093094649
       24.999985       287.49182       98787.599       14895.231       3.7602500      -1.5740000    0.0090000010       340.87400       1.9258447    0.0084141180
       29.999998       287.48892       98790.263       14869.111       4.3962500      -2.4117500     -0.29600000       340.53600       2.0079313     0.012214614
       34.999971       287.56427       98796.582       14910.544       2.0685000      -1.7457500    0.0012500000       340.77500       1.8724303    0.0089681223
       40.999979       287.55220       98803.306       14902.037       2.5805000      0.46275000     -0.32725000       340.88800       1.8828289     0.010191124
       45.999992       287.51526       98814.240       14913.376       2.2122500      0.30500000     0.055750000       340.87300       1.8876883     0.011176129
       51.000005       287.48923       98819.060       14906.616       2.8440000     -0.65450000     -0.39750000       340.78600       1.9274543    0.0099546818
       55.999978       287.40116       98820.212       14851.913       3.5982500      -1.1197500     -0.37800000       340.79800       1.8995096     0.011792918
       60.999991       287.37337       98821.608       14833.673       2.4412500      0.36350000       1.2455000       340.85000       1.9294954     0.011144412
       66.000004       287.40002       98820.385       14846.020       3.0240000     -0.25075000      0.50650000       340.76000       1.8812448     0.011699894
       70.999977       287.40002       98820.429       14837.199       3.8352500      -1.2120000     -0.78100000       340.79500       2.0432101     0.013347158
       75.999990       287.39985       98821.502       14826.085       3.1207500      0.20500000      0.20125000       340.89000       1.8594953     0.010830927
       81.000003       287.39990       98819.884       14806.104       2.1917500      0.44100000      0.89125000       340.82500       1.8928098    0.0096137433
       85.999976       287.40080       98818.433       14765.934       3.9897500     -0.49475000      0.29000000       340.86200       1.9077299     0.010582287
       90.999989       287.40115       98813.207       14757.155       2.6315000     -0.83375010    -0.060750000       340.83000       1.9312952    0.0099840243
       96.000002       287.41141       98802.809       14755.216       2.7562500     -0.37575000      0.27975000       340.80700       1.9296684    0.0086522314
       100.99998       287.39533       98795.779       14757.914       2.9307500     -0.42550000      0.20025000       340.88500       1.9849838    0.0099201702
       105.99999       287.36892       98785.233       14804.945       2.0870000     -0.78875010     0.097500000       340.69600       1.9465076     0.011260428
       111.00000       287.33285       98782.225       14789.070       1.2452500    -0.032750000      0.78625010       340.98100       1.9216357    0.0091265002
       115.99997       287.25863       98781.270       14737.005       4.2900000     -0.22800000      0.22350000       340.71600       1.8835536    0.0098442447
       120.99999       287.22477       98786.693       14696.507       4.0427500     -0.85950010     -0.40375000       340.57300       1.8962656    0.0092848543
       127.00000       287.18827       98802.191       14604.703       2.4567500    0.0035000000      0.60475000       340.86700       2.0082890     0.017863125
       132.00001       287.19629       98813.167       14579.036       4.6597500      0.73125000      0.68625000       340.75700       1.9911630     0.011835223
       136.99998       287.25463       98830.286       14590.190       4.9612500    -0.085000000     -0.15200000       340.50400       1.9528401     0.010003974
       141.99999       287.25585       98837.796       14569.149       4.3630000      -1.2870000     -0.14650000       340.53100       1.9399562    0.0097563069
       147.00001       287.25663       98842.634       14550.482       4.3162500      -1.2120000     -0.58200000       340.72600       1.9248362     0.010048857
       151.99998       287.24811       98841.193       14541.119       4.2032500     -0.89050010    -0.078250010       340.64100       1.9475071     0.010507020
       156.99999       287.19703       98831.013       14512.829       3.2532500     -0.62725000     0.066250000       340.75800       1.9079650     0.011052800
       162.00001       287.18580       98827.030       14515.523       3.3697500     0.056000000     0.046000000       340.73200       1.8876131    0.0091429304
       166.99998       287.20899       98820.747       14566.081       3.2420000     -0.81300000      0.33075000       340.77200       1.8975943    0.0089566749
       171.99999       287.18979       98816.658       14552.365       5.1657500      -1.7647500     -0.61025010       340.68400       1.9803350     0.011583618
       177.00001       287.15426       98817.258       14515.281       2.3622500      -2.2090000      0.29550000       340.74700       1.8654203    0.0099497483
       181.99998       287.13435       98811.410       14491.065       4.2045000      -1.4060000     -0.13575000       340.59200       1.9584384    0.0093333460
       186.99999       287.07877       98801.444       14422.485       3.4907500      -1.0737500      -1.1175000       340.67200       1.9492768    0.0096988696
       192.00000       287.10489       98794.445       14428.867       4.3612500     -0.54875000     -0.21325000       340.73200       1.8493274     0.011813107
       196.99998       287.19255       98781.493       14488.850       4.4137500     -0.52450000     -0.40750000       340.45800       1.8550026     0.011686964
       201.99999       287.23218       98784.732       14511.057       3.0295000     -0.78100000      0.29050000       340.62200       1.9673707     0.010001655
       207.00000       287.30564       98798.376       14553.842       4.1307500      -1.4695000     -0.17550000       340.67300       1.9160966    0.0091703915
       211.99998       287.32811       98805.167       14572.959       3.7287500    0.0040000000     -0.41425000       340.64000       1.8918423     0.010841568
       217.99998       287.29377       98821.497       14557.172       5.1087500      -1.2190000      0.70125000       340.52200       1.9017615    0.0089209256
       223.00000       287.31541       98829.230       14594.404       4.7312500      -2.3312500     -0.49400000       340.42500       1.8923716    0.0089921643
       227.99997       287.35599       98830.153       14660.339       3.1582500      -1.1015000     -0.34975000       340.48700       1.9356071    0.0084006126
       232.99998       287.35436       98840.166       14686.518       4.1310000      -2.5947500     -0.22325000       340.42500       1.9213118    0.0086940051
       238.00000       287.35558       98842.738       14711.381       2.8190000      -1.4687500     0.011500000       340.52300       1.8929981    0.0088797164
       242.99997       287.29969       98835.915       14687.262       4.1040000      -1.9627500     -0.46850000       340.53300       1.8734635     0.012096065
       247.99998       287.28720       98831.136       14691.713       2.5552500      -1.2932500     -0.23800000       340.51900       1.8897905    0.0097007981
       253.00000       287.29929       98825.121       14711.843       2.8642500     -0.28625000      0.46025000       340.44800       1.8461878     0.016142507
       258.00001       287.34922       98815.365       14760.629       2.9175000      -1.4697500     -0.36100000       340.57000       1.9325920    0.0099554434
       262.99998       287.36947       98807.296       14780.977       4.2810000     -0.63475000      0.12875000       340.54800       2.0017757    0.0086472308
       267.99999       287.40536       98799.522       14809.824       2.3510000     -0.38050000      0.36925000       340.56000       1.9823662     0.011794702
       273.00001       287.38502       98785.811       14760.930       4.2752500      -1.6557500     -0.34375000       340.48900       1.9552055     0.011286924
       277.99998       287.39357       98785.845       14759.885       3.6572500     -0.85625000      0.10025000       340.48400       1.9297188     0.010192167
       282.99999       287.43041       98812.971       14779.103       3.6475000      -1.2275000      0.23550000       340.57000       1.8287612     0.011504598
       288.00001       287.45018       98818.478       14797.865       2.8490000      0.46600000      0.67250000       340.58400       1.9411168     0.010146693
       292.99998       287.48505       98814.771       14844.851       3.0402500      -2.2672500    -0.088250000       340.70000       1.8753567    0.0098338517
       297.99999       287.50621       98817.150       14902.283       2.9465000     -0.89925000       1.0085000       340.71100       1.9380307     0.010123709
       303.00001       287.51508       98815.835       14965.132       4.1535000     -0.81950000      0.10325000       340.64900       1.8772277    0.0090231644
       308.99997       287.50726       98795.924       15042.372       2.0925000      -1.9230000     -0.97025010       340.70700       1.8246309     0.016187794
       313.99999       287.43244       98815.701       15080.003       2.6090000      -2.4472500     -0.39875000       340.66000       1.8814232    0.0091978352
       319.00000       287.39236       98818.049       15076.857       2.5042500      -1.6182500      0.62450000       340.60000       1.8912580     0.010062631
       323.99997       287.30528       98808.816       14982.732       4.8945000      -2.4147500     -0.14750000       340.59800       1.9372179     0.010177188
       328.99999       287.27823       98804.638       14925.152       3.4295000      -1.9165000     -0.38950000       340.78500       1.9887198     0.011415999
       334.00000       287.33398       98793.179       14868.789       3.2535000     0.035500000    -0.015750000       340.71200       1.9558479     0.010694553
       338.99997       287.35362       98787.581       14817.472       3.5517500      0.16775000     -0.19250000       340.66000       1.9216008    0.0099025039
       343.99998       287.36118       98785.904       14736.372       3.1745000      -1.0232500       1.0875000       340.79300       1.9115357     0.011389262
       349.00000       287.40263       98789.300       14726.426       4.1525000     -0.49600000     -0.82075010       340.61900       1.9513336     0.010553865
       353.99997       287.46842       98797.661       14769.090       2.3777500      -2.2340000    -0.080500010       340.84800       1.9304211    0.0095426215
       358.99998       287.50873       98805.987       14804.087       3.6795000     -0.83150010     -0.51750000       340.69100       1.8489107     0.010756560
       364.00000       287.59523       98827.219       14916.423       1.8497500     0.013250000      0.45600000       341.18800       1.9462083    0.0097207527
       368.99997       287.62195       98834.693       14973.548       4.3217500      0.32650000     -0.10850000       340.53800       1.7837645     0.014997946
       373.99998       287.56581       98832.852       14964.010       4.3547500     -0.23900000   -0.0062500000       340.81800       1.9254359     0.010828567
       379.00000       287.54598       98831.411       14998.263       3.8375000     -0.43050000     -0.17400000       340.60700       1.9189152    0.0099042363
       384.00001       287.51005       98821.740       15045.326       4.4870000     0.059750000     -0.23075000       340.73400       1.8699763    0.0092249227
       388.99998       287.49146       98813.799       15081.489       2.4237500     -0.47925000     0.068500000       340.88800       1.9387629    0.0092883656
       394.00000       287.51441       98804.521       15182.485       2.6647500      0.19200000     -0.10225000       341.12000       1.9108895    0.0090530674
       400.00000       287.49896       98797.535       15190.442       3.7077500     0.075000000     -0.47675000       340.81000       1.8792290    0.0097768545
       404.99998       287.44976       98787.616       15111.355       3.3975000     -0.52700000     0.083000000       340.71600       1.9442449    0.0096205591
       409.99999       287.44371       98788.539       15068.131       2.8935000     -0.21900000     0.031250000       340.76100       1.8744898    0.0097784730
       415.00000       287.41765       98799.437       14952.776       3.5215000     -0.42250000    -0.099500010       340.72900       1.8905767    0.0097272509
       419.99997       287.44824       98808.222       14923.016       1.7132500     -0.20550000     0.069250000       341.09700       1.9267094    0.0097271249
       424.99999       287.57094       98826.365       14961.951       2.7707500      0.16750000      0.99325010       341.05200       1.8600195     0.011702370
       430.00000       287.62651       98835.159       14987.798       2.3325000      0.60525000      0.36525000       341.26100       1.9119935    0.0094107083
       434.99997       287.70368       98843.298       15068.320       3.1240000      -1.2007500      0.12050000       340.77600       1.7330672     0.029283463
       439.99999       287.72182       98842.298       15099.523       1.7585000     -0.81175010      0.90400000       341.19500       1.8058185     0.023472168
       445.00000       287.64962       98831.570       15093.099       2.9835000     -0.61325000     0.083250000       341.13800       1.9443566    0.0090983476
       449.99997       287.64371       98822.839       15121.276       2.2637500    -0.019000000      0.43225000       341.44800       1.8514580     0.013178845
       454.99999       287.63040       98803.925       15128.969       2.5685000      0.31075000      0.14025000       341.23400       1.8804765     0.011318432
       460.00000       287.64769       98795.007       15177.524       2.5465000    -0.029250000    -0.068250000       341.29000       1.9395552     0.014768194
       464.99997       287.73354       98787.525       15296.901       3.4492500      0.22250000    -0.096750010       340.88900       1.8692227     0.010404628
       469.99999       287.76938       98788.497       15360.312       3.5910000     -0.39400000    -0.058500000       340.72400       1.9499796     0.011122897
       475.00000       287.76861       98799.028       15416.868       3.5012500     -0.11025000     -0.13325000       340.75900       1.9469787     0.010159691
       479.99997       287.81191       98807.677       15461.457       1.9087500      0.25475000      0.30375000       341.28300       1.8957447     0.010126764
       484.99998       287.87420       98826.161       15469.256       2.2215000     -0.45850000     -0.10350000       341.54900       1.8880964    0.0095627262
       490.99999       287.92235       98836.298       15495.340       3.1735000      -1.2912500     -0.27425000       340.73100       1.9352804     0.010043608
       496.00001       288.00874       98842.230       15537.903       1.9062500      -1.3825000     -0.35125000       340.98000       1.9892831     0.010175632
       500.99998       288.02048       98841.741       15537.357       3.1020000     -0.51500000      0.24150000       341.01600       1.9388440     0.010311896
       505.99999       287.96888       98835.075       15517.089       4.1040000      0.36375000     -0.36525000       341.04700       1.9061329     0.011215983
       511.00000       287.93280       98826.203       15486.774       3.8015000      0.37675000     0.085750010       340.91600       1.8812421     0.010824956
       515.99998       287.84741       98807.713       15414.220       3.3637500      0.41450000     -0.18150000       340.96200       1.9466832     0.010342196
       520.99999       287.82994       98799.021       15375.475       2.6907500     -0.58625000     0.034000000       341.19500       1.8584523     0.011049599
       526.00000       287.86549       98788.045       15366.355       3.0242500      0.38900000     -0.38450000       341.13500       1.9236892     0.012324996
       530.99998       287.83927       98787.247       15306.259       2.0645000      0.97650000      0.28900000       341.20400       1.8976141     0.010246100
       535.99999       287.79287       98795.323       15197.090       3.3242500      0.63675000     -0.27225000       341.00200       1.8752907     0.011598141
       541.00000       287.79948       98804.237       15170.351       4.2917500      0.88275000     -0.87600000       340.86400       1.9281516     0.011131438
       545.99998       287.75281       98825.171       15122.169       2.8655000      0.43150000      0.26000000       341.08200       1.9192296     0.010664535
       550.99999       287.81374       98830.691       15155.954       3.0767500     -0.31875000     -0.54700010       340.92600       1.8978050     0.010584796
       556.00000       288.00335       98835.145       15299.878       2.7965000    -0.041750000    -0.085250010       341.15300       1.8668683     0.012465958
       560.99997       288.12233       98830.418       15403.535       2.5085000      -1.2660000      0.93975000       341.05900       1.8301910     0.014538672
       565.99999       288.30396       98807.792       15524.922       3.6507500     -0.98725000     -0.32375000       340.97600       1.8878119     0.011450709
       571.00000       288.35292       98799.081       15643.008       3.7032500     -0.19475000     -0.10575000       340.74700       1.8829606     0.011712280
       575.99997       288.30440       98790.470       15774.994       3.5802500     -0.12300000     0.081000000       341.17900       1.8894488     0.011020791
       581.99998       288.30682       98785.993       15907.654       3.4315000      0.80675010     -0.25125000       340.55500       1.8472854     0.012798040
       586.99999       288.25868       98787.712       16052.146       2.1327500      -1.0902500      0.41750000       341.70000       1.9248752    0.0098639132
       592.00001       288.21853       98793.425       16061.111       4.6060000       1.0697500    -0.073500000       341.02700       1.9453440    0.0094467909
       596.99998       288.21930       98802.388       16007.962       4.3020000     0.059500000      0.28525000       340.57900       1.9526087     0.010478544
       601.99999       288.17242       98812.062       15931.343       2.5237500       1.9477500      0.48275000       340.98000       2.0875098     0.010297271
