MIRICO/SHELL project - Processed LDS file generated on
Fri Jul 21 03:19:33 2017
Time stamp for record start
05/12/2017  10:37: 2.0000
Nb of points in the record
         985
Beam position index
       3.0000000
Beam angle (degrees)
     -0.96000000
Open Path length (m)
       44.550000
****************** Temporal data record ************************
Elapsedtime_sec Temp_K Press_Pa Humidity_ppmv WindX_m/s WindY_m/s WindZ_m/s Speedofsound_m/s CH4vmr_ppmv CH4vmrerror_ppmv  
      0.00000000       287.65099       98809.029       15069.463       5.3020000      -1.2825000     -0.21950000       340.72900       1.9384056    0.0095169762
       6.0000077       287.65696       98801.897       15100.407       2.1067500      -3.4430000      0.45750000       340.59600       2.0169936     0.016811732
       11.000021       287.66754       98790.403       15137.625       4.6255000      -1.5937500      -1.0500000       340.61900       1.9953715     0.013189714
       15.999994       287.64508       98786.258       15119.308       5.1792500      -1.5382500     -0.50150000       340.50300       2.0594209     0.016377074
       21.000007       287.55847       98790.350       15031.280       4.8002500      -2.6187500    -0.085250010       340.58100       1.9747835     0.011600826
       26.000020       287.52509       98790.365       14978.975       5.3165000      -2.2840000     -0.30600000       340.74000       1.9150215     0.010041417
       30.999993       287.48927       98787.935       14887.446       3.6050000     -0.47725000      0.40050000       340.94800       1.9612504     0.010770941
       36.000006       287.49128       98791.091       14867.725       3.9120000      -1.5730000     -0.75225000       340.59200       2.0252878     0.015527721
       41.000019       287.56477       98797.570       14909.432       1.7710000     -0.38975000      0.17925000       340.78900       2.0406013     0.013932545
       45.999992       287.55220       98803.306       14902.037       1.9800000       1.4482500      0.57750000       340.96900       1.9161114     0.010024545
       51.000005       287.51526       98814.240       14913.376       2.4390000      0.16950000      0.25925000       340.91400       2.0234237     0.016368967
       56.000018       287.48923       98819.060       14906.616       3.3510000     -0.69400000     0.099250000       340.80400       2.0916335     0.023209036
       60.999991       287.40116       98820.212       14851.913       2.7397500     -0.30375000     -0.28625000       340.71600       1.9982819     0.014968266
       66.000004       287.37337       98821.608       14833.673       3.2777500     -0.27150000     0.079000000       340.72200       1.8012731     0.016246634
       71.000017       287.40002       98820.385       14846.020       2.9302500     -0.19400000     -0.21475000       340.72200       2.0099799     0.010912377
       75.999990       287.40002       98820.429       14837.199       4.0572500     -0.71275000     -0.21975000       340.77100       1.9670030     0.011293627
       81.000003       287.39985       98821.502       14826.085       5.3280000     -0.87825010     -0.53675000       340.72900       1.9616589     0.011498097
       86.000016       287.39990       98819.884       14806.104       3.6322500      0.43850000     -0.19875000       340.72700       1.9552942     0.012602562
       90.999989       287.40080       98818.433       14765.934       3.4055000     -0.91550000      0.65200000       340.78600       1.9158567     0.010603841
       96.999997       287.40122       98811.860       14756.717       2.4607500    0.0087500000      0.60600000       340.88300       2.0158196     0.016047722
       102.00001       287.40920       98801.396       14755.035       3.5890000     -0.72950010     -0.10650000       340.74100       2.0299694     0.013181173
       106.99998       287.39060       98794.383       14759.531       2.7117500     0.089000000     -0.10125000       340.83700       1.9596442     0.012465271
       112.00000       287.36269       98784.336       14803.771       2.0807500     -0.32800000      0.26200000       340.73100       1.9705173     0.010995331
       117.00001       287.32416       98782.067       14782.899       1.5345000     -0.35675000     0.026000000       340.89600       1.8942593     0.012311045
       122.00002       287.25088       98781.962       14729.659       3.9072500     -0.33775000      0.35125000       340.72500       1.9776360     0.012582050
       127.00000       287.21946       98788.368       14687.280       4.1307500     -0.90025000     -0.35725000       340.58200       1.9182114     0.011663669
       132.00001       287.18827       98802.191       14604.703       2.7752500     -0.21625000      0.13350000       340.68200       1.9664872     0.011168531
       137.00002       287.19629       98813.167       14579.036       2.8072500     -0.32850000     -0.68000000       340.74400       1.9715488     0.010997925
       141.99999       287.25463       98830.286       14590.190       5.0717500      0.38625000      0.20500000       340.53500       1.9163945     0.010783453
       147.00001       287.25585       98837.796       14569.149       4.7515000      -1.2585000     -0.58325000       340.55600       1.9328382    0.0099021297
       152.00002       287.25663       98842.634       14550.482       4.2532500     -0.83600000     -0.24250000       340.67000       1.8537038     0.012631648
       156.99999       287.24811       98841.193       14541.119       4.0817500     -0.64525000     -0.37150000       340.66600       1.9441809     0.011567417
       162.00001       287.19703       98831.013       14512.829       3.0675000     -0.98775010     -0.10225000       340.63300       2.0251936     0.015553140
       167.00002       287.18580       98827.030       14515.523       3.1942500     -0.20375000    -0.064750000       340.73300       2.0672332     0.022106730
       171.99999       287.20899       98820.747       14566.081       2.8532500      -1.1525000      0.39800000       340.75100       2.0624470     0.017562187
       177.00001       287.18979       98816.658       14552.365       3.3082500     -0.59950000      0.66925000       340.76600       1.9901164     0.014770151
       183.00001       287.15028       98816.289       14510.906       4.1272500      -2.5145000      0.25900000       340.65100       2.0661172     0.019050793
       187.99999       287.08514       98807.094       14440.336       3.6815000      -1.5020000      0.18375000       340.51900       2.0561050     0.021823587
       193.00000       287.08097       98800.039       14421.212       3.8640000     -0.32825000      0.50650000       340.54100       2.0009060     0.011491699
       198.00001       287.16081       98784.212       14471.738       4.1517500     -0.47875000      0.23050000       340.63600       1.9473825     0.012050931
       202.99999       287.20048       98781.551       14493.218       4.2970000      -1.6867500      -1.0367500       340.62100       1.9981301     0.014403977
       208.00000       287.26992       98793.813       14530.396       2.3877500     -0.80675010     -0.67775010       340.70000       1.9912614     0.010022369
       213.00001       287.31210       98799.637       14558.571       3.7637500     -0.73950000     -0.10100000       340.62000       1.8411809    0.0094258473
       217.99998       287.32965       98806.670       14575.422       4.3977500     -0.70325010     -0.15550000       340.55200       1.9898635     0.014201756
       223.00000       287.29377       98821.497       14557.172       4.6480000     -0.31475000     -0.33825000       340.46200       1.9850427     0.011954310
       228.00001       287.31541       98829.230       14594.404       5.6845000      -3.2657500     -0.59675000       340.41200       1.9285422     0.010704569
       232.99998       287.35599       98830.153       14660.339       3.4745000      -1.3265000     0.062000000       340.53900       1.9425464     0.014726227
       238.00000       287.35436       98840.166       14686.518       3.4407500      -1.4912500     -0.18700000       340.49100       1.8253753     0.021050830
       243.00001       287.35558       98842.738       14711.381       3.6072500      -1.0615000     -0.11050000       340.49000       1.9693362     0.010534177
       247.99998       287.29969       98835.915       14687.262       3.3907500      -1.6090000      0.33050000       340.53800       1.9566724    0.0082731608
       253.00000       287.28720       98831.136       14691.713       2.8565000      -1.0920000    -0.048000000       340.61400       2.0859427     0.016826383
       258.00001       287.29929       98825.121       14711.843       3.1162500    -0.093500000      0.26100000       340.56700       2.0217958     0.012254749
       263.00002       287.34922       98815.365       14760.629       3.3872500      -1.2472500    -0.083500010       340.53700       1.9200411     0.011007953
       267.99999       287.36947       98807.296       14780.977       2.7662500      -1.1450000    -0.031250000       340.61100       1.9951026     0.012602393
       274.00000       287.40806       98798.429       14809.926       2.9172500     -0.52125000      0.65000000       340.70500       1.9990840     0.013006802
       279.00002       287.38573       98785.112       14759.325       3.8497500      -1.5382500     -0.13975000       340.48200       1.9658800     0.011364151
       283.99999       287.39678       98786.910       14761.770       4.1927500      -1.1420000     -0.12175000       340.57500       2.0164891     0.015589353
       289.00000       287.43437       98814.567       14781.614       4.3165000      -1.2512500     -0.22675000       340.45500       1.9951417     0.015426125
       294.00001       287.45413       98818.837       14803.482       4.1020000     -0.51175000      0.54050000       340.58300       2.1398838     0.025199291
       298.99999       287.49027       98815.542       14855.901       2.4895000      -2.4862500      0.21625000       340.65000       1.9191418    0.0087200688
       304.00000       287.50897       98817.183       14914.422       3.7222500      -1.2817500     -0.27575000       340.58300       2.0252303     0.017249061
       309.00001       287.52979       98800.198       15007.155       4.8827500     -0.33150000     -0.18250000       340.66700       2.0475480     0.014703160
       313.99999       287.50726       98795.924       15042.372       2.2500000      -1.6605000    -0.051750000       340.80000       1.9733800     0.013183032
       319.00000       287.43244       98815.701       15080.003       2.6225000      -2.2077500     -0.96450010       340.82300       1.9497267     0.011951895
       324.00001       287.39236       98818.049       15076.857       2.8160000      -1.5165000      0.14000000       340.67800       2.0162305     0.013725923
       328.99999       287.30528       98808.816       14982.732       5.5932500      -1.3300000      0.20600000       340.60900       1.9898278     0.012448173
       334.00000       287.27823       98804.638       14925.152       3.3820000      -1.8922500     -0.24475000       340.68900       2.0583768     0.014775551
       339.00001       287.33398       98793.179       14868.789       3.1180000      0.19025000     -0.18575000       340.81100       1.7270114     0.018113225
       343.99998       287.35362       98787.581       14817.472       3.5135000     -0.53950000     0.068750000       340.79500       2.0110460     0.012163867
       349.00000       287.36118       98785.904       14736.372       3.6895000      -1.4117500    0.0052500000       340.66300       2.0085206     0.011277226
       354.00001       287.40263       98789.300       14726.426       3.6372500     0.063500000     -0.17275000       340.61100       2.0220964     0.016059306
       358.99998       287.46842       98797.661       14769.090       2.9012500     -0.59575000      0.43150000       340.99600       2.0362575     0.012910554
       364.99999       287.51679       98807.957       14813.620       3.6565000     -0.89675000      0.20600000       340.74500       1.9792902     0.010329251
       370.00000       287.60362       98829.227       14929.899       2.9270000     -0.53700000      0.74975000       340.73600       1.9774506     0.012571795
       375.00002       287.62273       98835.417       14981.882       3.4125000      0.93075010     -0.42300000       340.75200       2.0388384     0.014270325
       379.99999       287.56185       98832.859       14970.155       4.2527500     -0.59875010      0.17500000       340.45300       2.0561607     0.013991837
       385.00000       287.54201       98830.680       15006.171       3.5472500     -0.70025000     0.035750000       340.75700       2.0150325     0.015073837
       390.00002       287.50535       98820.152       15052.266       3.9342500      0.24725000     -0.45075000       340.55800       1.8210491     0.011490564
       394.99999       287.48922       98812.211       15089.165       2.0307500      0.54425000      0.56700000       341.01900       2.0146018     0.017077036
       400.00000       287.51311       98803.239       15188.546       2.7440000     -0.13250000      0.54450010       341.03100       1.9693050     0.011304021
       405.00002       287.49896       98797.535       15190.442       3.3330000     -0.10125000      0.37525000       340.97200       2.1441021     0.028627256
       409.99999       287.44976       98787.616       15111.355       3.8760000     -0.77150010      0.11350000       340.70000       1.8470726     0.014129439
       415.00000       287.44371       98788.539       15068.131       2.8800000      0.59475000      0.45850000       340.84400       1.9375297     0.013508798
       420.00002       287.41765       98799.437       14952.776       2.3977500     -0.61025010      0.43775000       340.87800       1.9599448     0.012507821
       424.99999       287.44824       98808.222       14923.016       1.8982500    -0.042000000      0.22350000       340.92100       2.0307699     0.016351800
       430.00000       287.57094       98826.365       14961.951       2.2125000      -1.0222500     -0.14150000       340.94600       1.9685299     0.011603258
       435.00001       287.62651       98835.159       14987.798       2.8752500     -0.13375000     -0.16700000       341.30400       1.9818881     0.013164683
       439.99999       287.70368       98843.298       15068.320       3.2817500     -0.84350000    -0.036000000       340.89400       1.9408613     0.010592563
       445.00000       287.72182       98842.298       15099.523       1.9917500     -0.81800000      0.74400000       341.17900       1.9343574    0.0084122777
       450.00001       287.64962       98831.570       15093.099       3.1612500     0.043000000      0.46875000       341.30000       2.0228059     0.023148462
       456.00002       287.64404       98820.794       15127.677       1.8360000    -0.072500010      0.53500000       341.40500       1.9832386     0.015510109
       460.99999       287.63186       98801.829       15136.579       1.8387500      0.17550000     -0.20450000       341.24900       2.0463255     0.014444202
       466.00001       287.65414       98793.692       15190.395       2.6127500     0.016500000     0.064500000       341.24600       1.9699198     0.010524618
       471.00002       287.74170       98787.227       15310.632       3.5940000      0.42850000     0.088000010       340.74000       2.0242906     0.018127223
       475.99999       287.77508       98789.430       15371.416       3.6197500     -0.18075000     0.039750000       340.76500       1.9872660     0.016465064
       481.00001       287.77628       98800.561       15427.031       3.0957500      0.13175000     -0.54650000       340.68500       1.8808586     0.011667014
       486.00002       287.82205       98809.702       15468.501       1.9912500      0.56025000     0.024750000       341.01700       1.8940382     0.011808977
       490.99999       287.88216       98828.222       15473.523       2.4150000     0.062750000     0.068750000       341.46600       2.0361820     0.012717463
       496.00001       287.92235       98836.298       15495.340       3.6372500      -1.9017500      0.52825000       340.77100       2.0822166     0.022679050
       501.00002       288.00874       98842.230       15537.903       2.8105000      -1.3795000      0.50075000       341.12700       2.0530346     0.011581136
       505.99999       288.02048       98841.741       15537.357       3.0975000      -1.3577500      0.23350000       340.91400       2.0556029     0.019367188
       511.00000       287.96888       98835.075       15517.089       3.5760000     -0.62825000     0.014250000       341.28200       1.9819480     0.013628468
       516.00002       287.93280       98826.203       15486.774       3.7315000      0.22575000     -0.12200000       340.87300       1.9978070     0.010711742
       520.99999       287.84741       98807.713       15414.220       3.3152500     -0.18550000   -0.0022500000       341.13700       1.9644897     0.011918516
       526.00000       287.82994       98799.021       15375.475       2.5035000     -0.48050000     -0.78550000       340.94800       1.9303493     0.010464752
       531.00002       287.86549       98788.045       15366.355       2.6337500     -0.68450000     -0.59050010       341.17100       2.0743514     0.021971670
       535.99999       287.83927       98787.247       15306.259       2.2237500      0.73475000      0.11200000       341.24700       1.9554811     0.012229782
       541.00000       287.79287       98795.323       15197.090       2.4427500     -0.73125000     -0.56225000       341.11700       1.9991139     0.020047938
       547.00001       287.80232       98806.472       15168.004       3.8477500      0.13625000    -0.071250010       340.98000       1.9439099     0.013209946
       551.99998       287.76000       98826.687       15124.409       3.1062500      0.52675000     0.072500010       340.70100       2.0865727     0.020377430
       557.00000       287.83343       98831.178       15169.500       2.7997500      0.48500000    -0.048750000       341.09300       1.9316703     0.010221397
       562.00001       288.02714       98834.789       15319.775       3.5605000    -0.069250000     0.064750000       341.04700       2.0019787     0.011136766
       567.00002       288.14612       98828.588       15425.528       1.6857500      -1.1285000      0.24475000       341.53300       1.8222996     0.012009053
       572.00000       288.31867       98805.852       15548.207       3.4105000     -0.14825000      0.37250000       340.89600       1.9746360     0.012140524
       577.00001       288.35533       98797.635       15667.092       3.6527500      0.28850000     -0.27300000       340.85100       2.0453985     0.016611479
       582.00002       288.30612       98789.346       15797.908       3.8192500     -0.49925000     -0.28825000       340.79100       1.9956514     0.013655658
       586.99999       288.30682       98785.993       15907.654       3.6242500      0.21150000     -0.13650000       340.56800       2.0827051     0.020171190
       592.00001       288.25868       98787.712       16052.146       2.9817500      0.25350000    -0.044000000       341.49800       2.0389332     0.015804804
       597.00002       288.21853       98793.425       16061.111       5.0247500      0.98675010      0.28425000       340.59800       2.0050560     0.012040350
       601.99999       288.21930       98802.388       16007.962       3.7272500      0.85450010     -0.34750000       341.00100       1.9654368     0.018007484
