MIRICO/SHELL project - Processed LDS file generated on
Fri Jul 21 23:13:48 2017
Time stamp for record start
05/12/2017  10:37: 3.0000
Nb of points in the record
         985
Beam position index
       4.0000000
Beam angle (degrees)
    -0.040000000
Open Path length (m)
       98.010000
****************** Temporal data record ************************
Elapsedtime_sec Temp_K Press_Pa Humidity_ppmv WindX_m/s WindY_m/s WindZ_m/s Speedofsound_m/s CH4vmr_ppmv CH4vmrerror_ppmv  
      0.00000000       287.65323       98807.839       15076.067       4.0332500     -0.93500010     0.048750000       340.72900       1.9313220    0.0087129540
       5.0000131       287.65696       98801.897       15100.407       2.7377500      -1.8715000      0.87375000       340.80600       1.9258340    0.0099928356
       10.000026       287.66754       98790.403       15137.625       4.9777500      -1.9150000     -0.45250000       340.58500       1.9354034    0.0091380971
       14.999999       287.64508       98786.258       15119.308       4.8372500      -1.3365000    -0.091500010       340.53300       1.9489604    0.0086413087
       20.000012       287.55847       98790.350       15031.280       4.8480000      -2.4602500     0.084500010       340.54000       1.9278875    0.0091986556
       25.000025       287.52509       98790.365       14978.975       4.5750000      -2.1972500      0.31550000       340.75500       1.9158366    0.0089671912
       29.999998       287.48927       98787.935       14887.446       3.2017500     -0.70775000     0.070500000       340.94300       1.9207014    0.0088041511
       35.000011       287.49128       98791.091       14867.725       2.9757500      -1.6395000      -1.5652500       340.52100       1.9094343    0.0095635861
       40.000024       287.56477       98797.570       14909.432       2.8502500      -1.1932500      0.55000000       340.71600       1.9384430    0.0098595255
       44.999997       287.55220       98803.306       14902.037       2.5827500       1.8222500     -0.24000000       340.53700       1.9140741     0.010129439
       50.000010       287.51526       98814.240       14913.376       3.1237500      0.26300000    -0.047250000       340.80700       1.9112777     0.010155896
       56.000018       287.48253       98819.727       14903.587       4.0842500     -0.67700000     -0.13850000       340.86000       1.9156023    0.0091334061
       60.999991       287.39357       98820.592       14847.291       3.0307500      -1.4865000     -0.72775010       340.84500       1.9301427    0.0094301418
       66.000004       287.37087       98821.735       14831.486       2.7725000     -0.29500000      0.12275000       340.76900       1.9106651    0.0084324537
       71.000017       287.40002       98820.393       14844.589       4.0335000     -0.23600000      0.52825000       340.70700       1.9292160    0.0090105304
       75.999990       287.40002       98820.439       14834.935       3.4905000     -0.76375000      0.25725000       340.85800       1.8988843    0.0098533711
       81.000003       287.39985       98821.280       14822.596       5.0025000     -0.18875000      0.64525000       340.80000       1.9242695    0.0094887527
       86.000016       287.39992       98819.409       14801.348       3.0107500      0.68050000      0.62250000       340.80300       1.9226300    0.0085360600
       90.999989       287.40087       98817.589       14763.300       3.5495000      0.12700000      0.59475000       340.79400       1.9105908    0.0082576632
       96.000002       287.40122       98811.860       14756.717       2.2972500     -0.60825000      0.56325000       340.85600       1.9036633    0.0098509264
       101.00002       287.40920       98801.396       14755.035       3.2702500     -0.90800010    -0.023000000       340.77500       1.9174860     0.010314918
       105.99999       287.39060       98794.383       14759.531       2.5460000     -0.45300000    -0.014000000       340.85400       1.9030211    0.0098635731
       111.00000       287.36269       98784.336       14803.771       1.8630000      -1.0210000      0.48900000       340.68700       1.9207637    0.0091557988
       116.00001       287.32416       98782.067       14782.899       2.3150000     -0.28225000     -0.28450000       340.74300       1.9024766    0.0097701414
       121.00003       287.25088       98781.962       14729.659       4.0015000      -1.1282500     0.085000000       340.53800       1.9148454    0.0097329081
       126.00000       287.21946       98788.368       14687.280       3.7512500      -1.0720000     -0.15450000       340.61600       1.9185747     0.010088345
       131.00001       287.18827       98802.191       14604.703       2.9320000    -0.078750010     -0.12700000       340.66600       1.9077702    0.0097332518
       136.00003       287.19629       98813.167       14579.036       4.4822500     -0.56325000     -0.19525000       340.69400       1.8798553    0.0093430836
       141.00000       287.25463       98830.286       14590.190       4.7800000     -0.81150000     -0.46175000       340.58900       1.9207742    0.0091730479
       147.00001       287.25455       98840.167       14559.172       4.5017500      -1.4145000     -0.10900000       340.57900       1.9154316    0.0088888329
       152.00002       287.25591       98842.748       14548.476       3.7637500     -0.34100000    -0.012250000       340.81200       1.9199804    0.0093714349
       156.99999       287.21486       98834.210       14522.081       4.0990000     -0.85750000     0.081000000       340.69100       1.8961829    0.0098920867
       162.00001       287.19380       98830.215       14512.101       3.1040000     -0.31250000      0.29400000       340.73300       1.9087361    0.0089684408
       167.00002       287.18503       98826.235       14517.962       3.0792500     -0.56150000    -0.075500000       340.85100       1.9022295    0.0099434328
       171.99999       287.20617       98819.830       14564.996       2.8390000     -0.55775000      0.41875000       340.79300       1.9125949    0.0090132594
       177.00001       287.18443       98815.989       14547.138       2.8755000      -1.8280000     -0.36050000       340.72500       1.9079927    0.0086895266
       182.00002       287.15028       98816.289       14510.906       4.2770000      -2.3450000      0.26200000       340.67600       1.9066677    0.0089509196
       186.99999       287.08514       98807.094       14440.336       3.0335000      -1.5607500      0.41750000       340.54500       1.8922313     0.010616667
       192.00000       287.08097       98800.039       14421.212       2.6272500     -0.96025000     -0.67350010       340.65500       1.8962685    0.0095352254
       197.00002       287.16081       98784.212       14471.738       4.4515000     -0.53775000      0.35325000       340.62000       1.8952584    0.0095041897
       201.99999       287.20048       98781.551       14493.218       3.9905000      -1.4492500     -0.15225000       340.48800       1.9159727    0.0092652177
       207.00000       287.26992       98793.813       14530.396       3.4657500     -0.82275000    -0.077500000       340.65100       1.9011741    0.0094754156
       212.00002       287.31210       98799.637       14558.571       2.9685000      -1.1912500       1.1152500       340.69600       1.9098972    0.0092434383
       216.99999       287.32965       98806.670       14575.422       3.6242500      -1.8945000      0.15025000       340.57300       1.9209560    0.0086680124
       222.00000       287.29377       98821.497       14557.172       4.6777500      -1.3660000     -0.21000000       340.53600       1.9174121    0.0089271584
       227.00002       287.31541       98829.230       14594.404       5.1457500      -2.2852500     -0.21850000       340.51000       1.9343566    0.0091561128
       231.99999       287.35599       98830.153       14660.339       3.3880000      -1.1985000     0.071000000       340.53200       1.9331525    0.0089582347
       238.00000       287.35560       98841.085       14692.576       3.5647500      -1.5925000      0.35375000       340.57600       1.9411222    0.0082396449
       243.00001       287.35434       98842.646       14714.723       3.6045000      -1.3905000     0.060750000       340.57800       1.9141466    0.0095637985
       248.00002       287.29523       98835.058       14686.900       3.5092500      -2.3065000    -0.081000000       340.56800       1.9277152    0.0086900571
       253.00000       287.28765       98830.032       14694.483       2.6565000     -0.44900000      0.11825000       340.68800       1.9259835    0.0093100439
       258.00001       287.33325       98821.769       14741.513       2.4292500     -0.84675000      0.10900000       340.59300       1.9203017    0.0092138771
       263.00002       287.35324       98813.757       14765.014       2.6045000      -2.2407500      0.47025000       340.56600       1.9146320    0.0094554793
       267.99999       287.38949       98804.384       14801.877       2.1455000     -0.21050000      0.10475000       340.70300       1.9357730    0.0088437973
       273.00001       287.40806       98798.429       14809.926       3.2667500      0.23550000      0.00000000       340.63200       1.9221482    0.0091130526
       278.00002       287.38573       98785.112       14759.325       4.2875000      -1.1250000     -0.50000000       340.52100       1.9228704    0.0085344030
       282.99999       287.39678       98786.910       14761.770       3.6032500      -1.0372500    -0.064500000       340.52200       1.9251866    0.0091828894
       288.00001       287.43437       98814.567       14781.614       4.1057500     -0.59475000     0.093750010       340.53200       1.9186943    0.0086930401
       293.00002       287.45413       98818.837       14803.482       3.8677500     -0.17600000      0.13425000       340.61900       1.9219828    0.0093640474
       297.99999       287.49027       98815.542       14855.901       2.1230000      -1.7187500     0.031750000       340.71000       1.9306800    0.0096893640
       303.00001       287.50897       98817.183       14914.422       3.8780000      -1.2965000      0.26350000       340.58600       1.9309177    0.0095165499
       308.00002       287.52979       98800.198       15007.155       4.3855000     -0.60825000     -0.12100000       340.60000       1.9116700     0.010606853
       312.99999       287.50726       98795.924       15042.372       3.3107500      0.20525000      0.39225000       340.74600       1.9150824     0.010157312
       318.00001       287.43244       98815.701       15080.003       1.7365000      -2.3015000    -0.078250010       340.76000       1.9104496    0.0097928609
       324.00001       287.38434       98817.765       15071.492       3.4450000      -2.8902500     -0.70075010       340.72700       1.9274722    0.0086124169
       329.00003       287.29683       98808.073       14970.879       4.7717500      -2.7355000     -0.48675000       340.61000       1.8930910    0.0097701502
       334.00000       287.27737       98803.663       14914.131       3.9152500      -1.2677500   0.00050000000       340.75200       1.9066889    0.0091885983
       339.00001       287.33791       98791.766       14858.089       3.8267500     -0.52850000     -0.25600000       340.85100       1.8977741    0.0094921061
       344.00003       287.35755       98786.901       14807.863       4.0215000     -0.62675010     -0.20700000       340.91400       1.9168158    0.0091569158
       349.00000       287.36845       98786.279       14731.432       3.5355000      -1.0370000     -0.52850000       340.71100       1.9032844    0.0086609062
       354.00001       287.41246       98790.434       14728.870       4.3450000     -0.16675000    -0.060500000       340.66400       1.8988224     0.010943680
       359.00002       287.47647       98799.123       14774.405       3.6330000      -1.8967500      0.35975000       340.70000       1.9145932     0.010383041
       364.00000       287.51679       98807.957       14813.620       3.8022500     -0.60475000    0.0047500000       340.76000       1.8908837     0.010077906
       369.00001       287.60362       98829.227       14929.899       2.0285000      0.92675010      0.16350000       340.90200       1.9117169    0.0088345927
       374.00002       287.62273       98835.417       14981.882       4.4202500      0.45500000     0.051000000       340.57500       1.9327822    0.0093386424
       379.00000       287.56185       98832.859       14970.155       4.9250000     0.096500000      0.11325000       340.74600       1.9312007    0.0099547942
       384.00001       287.54201       98830.680       15006.171       3.3327500      0.58000000    -0.057000000       340.64400       1.9136235    0.0097587973
       389.00002       287.50535       98820.152       15052.266       3.4250000    -0.017750000     -0.24625000       340.71200       1.9256223    0.0091101374
       394.00000       287.48922       98812.211       15089.165       2.0290000     -0.34625000      0.52675000       341.08400       1.9072746     0.010736708
       399.00001       287.51311       98803.239       15188.546       2.7872500     -0.86125000     -0.20225000       340.86600       1.9170502    0.0092894269
       404.00002       287.49896       98797.535       15190.442       2.6492500     0.044250000       1.0185000       341.00300       1.9206922    0.0097076655
       408.99999       287.44976       98787.616       15111.355       3.8612500    -0.096500000    -0.043500000       340.66100       1.9238389    0.0093602940
       415.00000       287.44400       98789.477       15058.306       2.9337500     -0.58225000     -0.13350000       340.77800       1.8978438     0.010725617
       420.00002       287.42078       98801.001       14943.538       2.3327500     -0.57800000      0.50225000       340.88500       1.9105815    0.0090662316
       424.99999       287.45885       98810.267       14921.985      0.96250000     -0.35175000      0.89800010       341.04400       1.9248411    0.0094005808
       430.00000       287.58304       98828.418       14965.855       2.5847500      -2.0232500      0.33500000       341.05100       1.9104851    0.0093727957
       435.00001       287.63614       98836.477       14994.874       2.9857500      0.32225000     0.061500000       341.12300       1.9097739    0.0094472181
       440.00003       287.71033       98843.605       15075.880       3.3050000     -0.74425010      0.35425000       340.97300       1.8504055     0.014271704
       445.00000       287.72091       98841.338       15103.779       2.1875000    -0.064000000      0.17475000       341.22200       1.9085727    0.0093267597
       450.00001       287.64743       98830.022       15098.225       3.1687500     -0.48475000     -0.29275000       340.70200       1.9012267     0.010161848
       455.00003       287.64404       98820.794       15127.677       2.6245000      0.22500000     -0.49250000       341.28000       1.9018088    0.0096969414
       460.00000       287.63186       98801.829       15136.579       1.8310000      0.14400000      0.12875000       341.37700       1.8929079     0.010164102
       465.00001       287.65414       98793.692       15190.395       3.3797500      0.61075000      0.28200000       341.06500       1.8997312     0.010236951
       470.00003       287.74170       98787.227       15310.632       3.8297500     0.040750000     -0.23400000       340.82800       1.8892812     0.011901403
       475.00000       287.77508       98789.430       15371.416       3.5377500      0.14475000     0.071250010       340.72400       1.9069182    0.0096942299
       480.00001       287.77628       98800.561       15427.031       3.0822500     0.055500000     -0.38925000       340.76200       1.9137405     0.010016410
       485.00002       287.82205       98809.702       15468.501       3.1150000      0.56475000      0.31050000       341.26800       1.9263777     0.010143652
       490.00000       287.88216       98828.222       15473.523       2.5967500     -0.26825000      0.30325000       341.46000       1.9258397    0.0092638466
       495.00001       287.92235       98836.298       15495.340       3.5102500      -1.2655000      0.58525000       340.76300       1.9134730    0.0093602514
       500.00002       288.00874       98842.230       15537.903       2.5382500     -0.83475010     0.031750000       340.98300       1.9260238    0.0091264692
       505.99999       288.01833       98841.044       15534.891       3.9487500     -0.19800000      0.12150000       340.86500       1.9185953    0.0090712065
       511.00000       287.96265       98833.599       15512.331       3.5832500      0.14575000     -0.29225000       340.60600       1.9129881    0.0095273865
       516.00002       287.92410       98823.982       15478.757       3.8090000     -0.27275000    -0.042750000       341.06700       1.8848446     0.010754398
       520.99999       287.84196       98805.777       15405.889       2.9847500      0.25650000    0.0042500000       340.87300       1.9174360    0.0099564875
       526.00000       287.82939       98797.579       15368.594       2.7207500      0.12875000      0.16100000       341.05700       1.9181255    0.0095786108
       531.00002       287.86124       98787.380       15355.797       2.1475000     -0.54725000     -0.20400000       340.95500       1.9183114    0.0099689821
       535.99999       287.83254       98787.845       15292.056       2.3360000      0.43025000     -0.33925000       341.34700       1.9219574    0.0094778766
       541.00000       287.79318       98796.805       15189.740       3.6182500     -0.63800000      0.69425000       341.19900       1.8873247     0.010412621
       546.00002       287.80232       98806.472       15168.004       4.5760000      0.21975000     -0.17325000       340.55100       1.8595608     0.010374202
       550.99999       287.76000       98826.687       15124.409       3.2135000      0.21750000      0.22075000       340.81700       1.9145789    0.0092377936
       556.00000       287.83343       98831.178       15169.500       3.4742500     -0.46925000      0.47875000       341.14600       1.9084258    0.0097256027
       561.00001       288.02714       98834.789       15319.775       3.9157500      0.23175000     -0.17425000       340.98900       1.9062766     0.010700462
       566.00003       288.14612       98828.588       15425.528       1.6972500      -1.1640000      0.58325000       341.61200       1.9133982     0.010155471
       571.00000       288.31867       98805.852       15548.207       4.9312500     -0.63300000      0.43200000       340.80700       1.9332118    0.0088816579
       576.00001       288.35533       98797.635       15667.092       3.7805000     -0.46100000     0.050500000       341.20800       1.9157428     0.010008185
       581.00003       288.30612       98789.346       15797.908       3.6320000    0.0095000010     -0.27950000       340.76900       1.9082706    0.0096487222
       586.00000       288.30682       98785.993       15907.654       3.4327500      0.19850000      0.41325000       340.93300       1.9127130     0.010016819
       591.00001       288.25868       98787.712       16052.146       2.8935000     -0.20725000      0.38375000       341.41900       1.9167867    0.0095892276
       597.00002       288.23911       98796.389       16034.487       3.9967500       1.5165000      0.53575000       341.33600       1.9275893    0.0092353287
       601.99999       288.21189       98804.130       15996.491       4.5237500      0.12050000      0.75050000       341.24100       1.9680977    0.0089186308
