MIRICO/SHELL project - Processed LDS file generated on
Fri Jul 21 20:58:46 2017
Time stamp for record start
05/12/2017  10:37: 3.0000
Nb of points in the record
         985
Beam position index
       5.0000000
Beam angle (degrees)
       8.5250000
Open Path length (m)
       83.010000
****************** Temporal data record ************************
Elapsedtime_sec Temp_K Press_Pa Humidity_ppmv WindX_m/s WindY_m/s WindZ_m/s Speedofsound_m/s CH4vmr_ppmv CH4vmrerror_ppmv  
      0.00000000       287.65323       98807.839       15076.067       3.7382500      -1.2370000     -0.97250000       340.54900       1.9640429    0.0091500465
       5.0000131       287.65696       98801.897       15100.407       4.3747500      -1.7647500     -0.57000010       340.51200       1.9362044     0.010765670
       10.000026       287.66754       98790.403       15137.625       4.1137500      -1.7717500    -0.090750000       340.69400       1.9262142    0.0091430805
       15.999994       287.63760       98785.889       15111.294       4.5177500      -1.2275000      0.44675000       340.68900       1.9347459    0.0095604490
       21.000007       287.55082       98790.354       15021.016       5.1017500      -2.2940000      0.23725000       340.61600       1.9010963     0.011303180
       26.000020       287.51989       98790.367       14968.219       4.0422500      -2.4767500     -0.15025000       340.87000       1.9166861    0.0096148174
       30.999993       287.48771       98788.369       14880.943       3.6867500     -0.36525000      0.28500000       340.91000       1.8794530     0.014621711
       36.000006       287.49462       98792.017       14867.616       2.9870000      -2.0767500     -0.52725010       340.71800       1.9352325    0.0093546169
       41.000019       287.56426       98798.610       14908.198       3.2095000     -0.78200010      0.25925000       340.79900       1.9369553     0.010725214
       45.999992       287.54667       98804.614       14900.189       2.8200000       1.8202500      0.18400000       340.66600       1.9288221     0.011539173
       51.000005       287.51105       98815.401       14913.143       2.5080000      0.46125000      0.54000000       340.74500       1.9267733     0.011124505
       56.000018       287.48253       98819.727       14903.587       3.3282500     -0.33650000     0.096250010       340.91000       1.9328393     0.010060513
       60.999991       287.39357       98820.592       14847.291       2.5800000     -0.34925000      0.48850000       340.92800       1.9190320     0.013267677
       66.000004       287.37087       98821.735       14831.486       2.4282500     -0.27950000      0.27600000       340.86000       1.9006762     0.010719446
       71.000017       287.40002       98820.393       14844.589       4.2217500     -0.54175000    -0.072000000       340.74600       1.9204250    0.0093297006
       75.999990       287.40002       98820.439       14834.935       3.8892500      0.69525000      0.24050000       340.84100       1.9180619    0.0085475348
       81.000003       287.39985       98821.280       14822.596       5.2300000      0.58575000     -0.61675000       340.60100       1.9181658     0.012019506
       86.000016       287.39992       98819.409       14801.348       4.7662500       1.3210000    -0.087000000       340.68400       1.9258019    0.0097803390
       90.999989       287.40087       98817.589       14763.300       4.2825000      -1.0897500     -0.54250000       340.79500       1.8907865     0.010756463
       96.000002       287.40122       98811.860       14756.717       3.0042500      -1.5762500      0.30225000       340.68600       1.9407720    0.0096883631
       101.00002       287.40920       98801.396       14755.035       3.2637500      -1.2087500    -0.018000000       340.75000       1.9217679     0.010998459
       107.00002       287.38465       98788.810       14802.454       2.7832500     -0.31750000      0.23550000       340.91300       1.9298160     0.012357595
       112.00000       287.35596       98783.586       14801.596       2.1265000     -0.74250000     0.073500000       340.79700       1.9421475     0.010202381
       117.00001       287.28482       98780.376       14756.773       2.9552500     -0.46475000     -0.23825000       340.86900       1.9228770     0.011545199
       122.00002       287.24362       98782.850       14721.935       4.0332500      -1.9475000    -0.092500000       340.62400       1.9091898     0.010709778
       127.00000       287.21465       98790.239       14677.677       3.6790000      -1.2212500     -0.26650000       340.61000       1.9342513     0.013350247
       132.00001       287.18785       98804.274       14597.836       3.3897500     -0.25225000      0.19325000       340.78600       1.9107928     0.011601243
       137.00002       287.20092       98815.531       14576.498       3.6245000     -0.53550000     -0.36200000       340.68700       1.9054108    0.0099719022
       141.99999       287.25587       98832.086       14586.221       4.7115000      0.87825010     -0.40125000       340.58200       1.9274590     0.011198764
       147.00001       287.25455       98840.167       14559.172       4.3415000      -1.4425000     -0.12575000       340.64500       1.9598171     0.013091610
       152.00002       287.25591       98842.748       14548.476       4.2082500     -0.72825000     -0.13150000       340.73100       1.8808981     0.010549009
       156.99999       287.21486       98834.210       14522.081       3.6932500     -0.13950000     -0.11375000       340.66100       1.9003736     0.010994432
       162.00001       287.19380       98830.215       14512.101       2.7942500     -0.23575000     -0.11600000       340.78600       1.9032444     0.010108333
       167.00002       287.18503       98826.235       14517.962       2.2892500     -0.46425000      0.23950000       340.84500       1.9421626     0.011803546
       171.99999       287.20617       98819.830       14564.996       3.1545000      -1.7497500     -0.36175000       340.69100       1.9247575     0.011308314
       177.00001       287.18443       98815.989       14547.138       2.5580000      -2.3792500      0.47275000       340.66900       1.8843644     0.010741810
       182.00002       287.15028       98816.289       14510.906       3.7450000      -1.4935000      0.15350000       340.64500       1.8970014     0.012736703
       186.99999       287.08514       98807.094       14440.336       3.3882500     -0.42950000      0.49825000       340.69800       1.8973324     0.013449745
       192.00000       287.08097       98800.039       14421.212       4.8900000      -1.1232500      0.17325000       340.55200       1.9381507    0.0094074968
       198.00001       287.16875       98783.090       14475.962       4.1895000     -0.12900000      0.47100000       340.80800       1.9078530     0.011624651
       203.00003       287.20841       98781.904       14497.623       3.7807500      -1.3387500     -0.37900000       340.51900       1.9223526     0.012796711
       208.00000       287.28033       98794.881       14536.936       3.5315000      -1.0885000   0.00075000000       340.57300       1.9070824    0.0098506235
       213.00001       287.31758       98800.947       14562.848       2.5832500     -0.10550000      0.34100000       340.72400       1.9208762     0.013441489
       218.00002       287.28563       98813.500       14541.157       4.1015000     -0.58850000     0.053500000       340.74700       1.9027577    0.0092239194
       223.00000       287.29708       98823.245       14563.086       2.9057500      -1.6797500      0.57700000       340.65800       1.9184089     0.010145795
       228.00001       287.34796       98826.977       14635.439       4.8935000      -1.8307500      0.52725010       340.51700       1.9110776     0.011334038
       233.00002       287.35674       98830.947       14665.572       3.4390000     -0.93475000      0.53925000       340.59000       1.9184859     0.011938797
       238.00000       287.35560       98841.085       14692.576       3.6057500      -1.2405000     -0.47975000       340.59200       1.9234145     0.010677825
       243.00001       287.35434       98842.646       14714.723       4.8625000      -1.6972500     -0.32200000       340.47800       1.9090479     0.013310072
       248.00002       287.29523       98835.058       14686.900       4.2230000      -1.7415000     0.025250000       340.46200       1.8965234     0.010662073
       253.00000       287.28765       98830.032       14694.483       2.3455000     0.013750000     -0.10225000       340.68700       1.9289009     0.010501606
       258.00001       287.33325       98821.769       14741.513       2.0257500      -1.1900000      0.45925000       340.67800       1.9322170     0.011277450
       263.00002       287.35324       98813.757       14765.014       3.7495000      -2.4742500     -0.29250000       340.60400       1.9468576    0.0089239239
       267.99999       287.38949       98804.384       14801.877       2.9032500     -0.65450000      0.13375000       340.62900       1.9403518     0.011090240
       273.00001       287.40806       98798.429       14809.926       4.2042500      -1.3167500      0.18725000       340.49600       1.9227118    0.0088442821
       278.00002       287.38573       98785.112       14759.325       3.8807500      -1.8122500    -0.058750000       340.49700       1.9356636     0.012698927
       282.99999       287.39678       98786.910       14761.770       3.4145000      -1.3522500   -0.0080000000       340.60500       1.8985486     0.011821732
       289.00000       287.43833       98815.916       14784.745       3.4262500      -1.2542500      0.23550000       340.63600       1.9777792     0.010148799
       294.00001       287.45807       98818.950       14809.721       4.2232500      -1.0515000     0.039000000       340.55600       1.9048416     0.010311977
       299.00003       287.49499       98816.166       14867.170       2.1860000      -1.9685000      0.43925000       340.75000       1.9358054    0.0090329287
       304.00000       287.51123       98817.067       14926.777       3.9940000      -1.0572500     -0.61950000       340.55300       1.9298986    0.0098283255
       309.00001       287.52732       98798.734       15015.907       3.4905000     -0.29200000     -0.15575000       340.63200       1.9565795     0.010001065
       314.00003       287.49971       98795.983       15046.845       2.3322500     -0.36375000       1.0725000       340.92300       1.9500136     0.010780107
       319.00000       287.42443       98816.673       15082.540       2.7730000      -1.9022500      0.48750000       340.82500       1.9374643     0.010838372
       324.00001       287.38434       98817.765       15071.492       3.7285000      -2.1697500      0.42325000       340.71500       1.9213105     0.016673814
       329.00003       287.29683       98808.073       14970.879       4.4152500      -1.0272500     -0.67725000       340.58800       1.9214810    0.0095482199
       334.00000       287.27737       98803.663       14914.131       3.7605000      -1.1122500    -0.073000010       340.78600       1.9348643    0.0093036485
       339.00001       287.33791       98791.766       14858.089       3.7070000    -0.014750000    -0.072250000       340.84700       1.9344253     0.010116648
       344.00003       287.35755       98786.901       14807.863       3.8465000     -0.10925000    -0.097250010       340.78200       1.8950674     0.011897183
       349.00000       287.36845       98786.279       14731.432       3.2655000      0.15125000     -0.34025000       340.71700       1.9355622    0.0093611929
       354.00001       287.41246       98790.434       14728.870       3.4917500     -0.40075000     -0.23550000       340.67500       1.9225148     0.010737563
       359.00002       287.47647       98799.123       14774.405       3.9847500      -1.8255000      0.49200000       340.63100       1.9357368    0.0099641051
       364.00000       287.51679       98807.957       14813.620       3.8275000      0.15950000     -0.32500000       340.72400       1.8979914     0.010318147
       369.00001       287.60362       98829.227       14929.899       1.8510000      0.91050000      0.49500000       340.70500       1.9151454     0.011245948
       375.00002       287.62199       98835.885       14989.180       4.0172500      0.41550000      0.11125000       340.76400       1.9058274    0.0085885019
       379.99999       287.55789       98832.719       14976.653       4.6347500      0.10000000     -0.25125000       340.64000       1.9579552     0.010228721
       385.00000       287.53804       98829.800       15014.431       3.6690000     0.048750000     -0.20350000       340.86300       1.9006515     0.010770251
       390.00002       287.50114       98818.564       15059.351       2.6892500     -0.36150000      0.14775000       340.82700       1.9375522    0.0091610652
       394.99999       287.48747       98810.623       15096.992       2.7057500     -0.31500000      0.86425010       341.13800       1.9766018     0.011188128
       400.00000       287.51131       98802.004       15192.713       3.6737500      0.32425000     -0.17825000       340.61700       1.9384863    0.0098414754
       405.00002       287.49459       98796.535       15185.143       4.0895000     -0.62950000      0.19025000       340.52500       1.9290040     0.010743923
       409.99999       287.44755       98787.299       15103.495       4.1177500     -0.86925010    -0.096250010       340.73000       1.9197832     0.013190168
       415.00000       287.44400       98789.477       15058.306       2.2732500     -0.19550000      0.66225000       340.93800       1.9341514    0.0089176469
       420.00002       287.42078       98801.001       14943.538       1.6342500     -0.15300000      0.67500000       341.01100       1.9436884     0.011636209
       424.99999       287.45885       98810.267       14921.985       2.7735000      -1.1890000      0.53600000       341.25000       1.9511677    0.0093830623
       430.00000       287.58304       98828.418       14965.855       2.8310000      -1.0417500      0.20800000       341.18200       1.9322235     0.010354790
       435.00001       287.63614       98836.477       14994.874       2.9097500     -0.40000000     -0.10175000       340.74100       1.9106384     0.012007467
       440.00003       287.71033       98843.605       15075.880       3.9412500     -0.57500000     -0.10800000       340.92100       1.9346289     0.010605029
       445.00000       287.72091       98841.338       15103.779       1.8895000      0.29800000      0.43225000       341.31700       1.9052591     0.013523985
       450.00001       287.64743       98830.022       15098.225       3.3852500     -0.27075000    -0.025000000       340.91400       1.9352723    0.0086046943
       455.00003       287.64404       98820.794       15127.677       2.2227500     -0.69200000      0.59400000       341.09600       1.9344991     0.010580662
       460.00000       287.63186       98801.829       15136.579       1.7720000     -0.77450000     -0.10525000       340.95500       1.9252222    0.0094638235
       466.00001       287.66159       98792.534       15204.326       3.0337500      0.35825000    -0.012250000       340.92300       1.9398055    0.0099967194
       471.00002       287.74936       98787.176       15323.840       3.1460000   -0.0022500000     0.010500000       340.88700       1.9672096    0.0094364777
       475.99999       287.78028       98790.609       15381.991       3.0455000     -0.33275000     -0.21900000       340.68900       1.9522695     0.010224384
       481.00001       287.78445       98802.192       15436.573       3.0115000    -0.048000000     -0.58150010       340.74200       1.9401134    0.0095734835
       486.00002       287.83268       98811.825       15474.916       3.2827500       1.1732500      0.15050000       340.89800       1.9504587    0.0099201972
       490.99999       287.89015       98830.135       15477.823       2.1452500     -0.63050000    -0.086750000       341.08400       1.9237077     0.010657607
       496.00001       287.93045       98837.466       15499.799       2.7532500      0.68775000      0.67950000       340.96300       1.9189985     0.013212271
       501.00002       288.01408       98842.532       15539.366       2.7037500     -0.87575010     -0.28550000       340.74100       1.9125748     0.011858442
       505.99999       288.01833       98841.044       15534.891       3.9835000      0.35475000   -0.0080000000       340.59000       1.9205660     0.011416600
       511.00000       287.96265       98833.599       15512.331       3.5197500     0.072000000    -0.055500000       341.00500       1.9252261     0.011211872
       516.00002       287.92410       98823.982       15478.757       3.8725000     0.016750000      0.15200000       340.97000       1.9466200     0.011879758
       520.99999       287.84196       98805.777       15405.889       3.6272500     -0.18950000     0.080750000       340.71600       1.8956900     0.014082410
       526.00000       287.82939       98797.579       15368.594       2.9697500      0.63575010    0.0040000000       341.00400       1.9253873     0.011894435
       531.00002       287.86124       98787.380       15355.797       2.6880000     -0.35550000      0.14275000       341.11900       1.9433538    0.0096997292
       535.99999       287.83254       98787.845       15292.056       2.3217500     -0.21550000    0.0022500000       341.41500       1.9348904     0.010076176
       541.00000       287.79318       98796.805       15189.740       3.4687500     -0.73350010      0.74550000       341.17700       1.8882644     0.010235910
       546.00002       287.80232       98806.472       15168.004       3.9277500     -0.22850000      0.13675000       340.86100       1.9348956     0.013405503
       550.99999       287.76000       98826.687       15124.409       4.0277500    -0.079500000     0.049000000       340.53800       1.9461627     0.011644246
       557.00000       287.93196       98834.441       15242.658       2.0727500      0.34475000      0.86700000       341.14800       1.9012098     0.013854222
       562.00001       288.05094       98834.139       15340.087       3.9127500      0.33925000    0.0025000000       340.94700       1.9310073    0.0099427754
       567.00002       288.24505       98814.206       15456.109       2.6447500     -0.15400000      0.29650000       341.40900       1.9027681     0.010926019
       572.00000       288.33092       98804.011       15571.663       3.7227500     -0.80000000      0.18125000       340.76900       1.9019648     0.010097201
       577.00001       288.35528       98796.288       15691.311       4.1225000     0.097000000      0.14650000       340.99500       1.9083760     0.011837023
       582.00002       288.30731       98788.373       15820.503       3.9912500     -0.29600000      0.19150000       341.04200       1.9256288     0.013231294
       586.99999       288.30539       98785.776       15928.623       2.3935000      0.54675000      0.59600000       340.92800       1.9282203     0.011636214
       592.00001       288.25064       98788.552       16059.206       3.3060000      0.44250000      0.70450000       341.36200       1.9574271    0.0091986860
       597.00002       288.23911       98796.389       16034.487       4.8292500       1.2405000      0.15375000       340.65300       1.9976521     0.012287671
       601.99999       288.21189       98804.130       15996.491       4.6590000      0.42725000      0.10400000       340.74700       3.9644853     0.012290198
