MIRICO/SHELL project - Processed LDS file generated on
Fri Jul 21 20:47:25 2017
Time stamp for record start
05/12/2017  10:37: 4.0000
Nb of points in the record
         985
Beam position index
       6.0000000
Beam angle (degrees)
       13.594000
Open Path length (m)
       58.300000
****************** Temporal data record ************************
Elapsedtime_sec Temp_K Press_Pa Humidity_ppmv WindX_m/s WindY_m/s WindZ_m/s Speedofsound_m/s CH4vmr_ppmv CH4vmrerror_ppmv  
      0.00000000       287.65497       98806.650       15082.092       3.3160000     -0.57875000      0.33575000       340.53100       1.8854303     0.014774557
       5.0000131       287.65622       98800.711       15103.536       3.4970000      -1.1352500      0.12100000       340.54700       2.0226300     0.011008084
       10.000026       287.66504       98789.267       15136.866       3.5182500      -1.9852500    -0.016000000       340.67700       1.9367851     0.011863577
       14.999999       287.63760       98785.889       15111.294       4.8770000      -2.1345000      0.26325000       340.66200       2.0779066     0.014667555
       20.000012       287.55082       98790.354       15021.016       4.2445000      -2.3532500     0.099250000       340.70100       1.8477726     0.014371865
       25.000025       287.51989       98790.367       14968.219       3.6245000     -0.94150010      0.61775000       340.85400       1.8370026     0.012721882
       29.999998       287.48771       98788.369       14880.943       3.5257500     -0.43750000      0.80050000       340.88400       1.9437472     0.013445708
       35.000011       287.49462       98792.017       14867.616       2.3517500      -1.2267500    -0.075000000       340.73800       1.8323110     0.019619687
       40.000024       287.56426       98798.610       14908.198       3.2735000     -0.27775000      0.37350000       340.84900       1.9368534     0.015846053
       44.999997       287.54667       98804.614       14900.189       3.4352500       1.6040000    -0.041750000       340.48600       1.9728083     0.013154380
       50.000010       287.51105       98815.401       14913.143       2.0690000    -0.098500010      0.35050000       340.94300       1.9655097     0.015646480
       55.000024       287.48253       98819.727       14903.587       2.7277500     -0.27125000    -0.068750000       340.91300       2.0193615     0.015726579
       59.999996       287.39357       98820.592       14847.291       1.9015000     -0.75800000      0.12775000       340.86700       1.9675041     0.012427032
       66.000004       287.40002       98820.366       14849.311       2.2207500     -0.42100000      0.17225000       340.97800       1.8756356     0.014210971
       71.000017       287.40002       98820.401       14842.992       3.1942500      0.21150000    -0.039000000       340.70000       1.9769257     0.014404108
       76.000030       287.40002       98820.450       14832.504       3.9620000     0.065500010      0.66950010       340.76900       1.8582329     0.014616815
       81.000003       287.39986       98821.007       14818.853       4.8070000      0.66150000      0.92300000       340.75900       1.9985281     0.015147270
       86.000016       287.39994       98818.883       14796.338       4.0427500      0.97525010      0.81925000       340.75300       1.9002075     0.024509793
       91.000029       287.40094       98816.644       14761.105       2.5175000     -0.67725000     -0.50325000       340.76800       1.8635718     0.019272540
       96.000002       287.41502       98807.067       14757.925       2.8820000      -1.6752500     0.072750000       340.60200       1.9176069     0.012609000
       101.00002       287.40648       98799.987       14755.215       3.5317500     -0.71450000     0.055250000       340.75000       1.9457856     0.013790375
       106.00003       287.38465       98788.810       14802.454       2.7847500      0.56750010      0.22100000       340.93700       2.0300514     0.013139474
       111.00000       287.35596       98783.586       14801.596       1.7737500     -0.63700000      0.10075000       340.82200       1.9643837     0.012848571
       116.00001       287.28482       98780.376       14756.773       2.8260000     -0.48550000     0.080500010       340.75700       2.0332401     0.016435689
       121.00003       287.24362       98782.850       14721.935       3.9675000      -1.0247500      0.47925000       340.59800       1.9623587     0.011719430
       126.00000       287.21465       98790.239       14677.677       3.8147500     -0.64175000    -0.023750000       340.70100       2.0658792     0.017358459
       131.00001       287.18785       98804.274       14597.836       3.4045000     -0.79925010     -0.10850000       340.74300       1.9107405     0.011145552
       136.00003       287.20092       98815.531       14576.498       3.3310000     -0.38425000     -0.19750000       340.75100       2.0723723     0.017218307
       141.00000       287.25587       98832.086       14586.221       5.1610000     -0.96900000     -0.54350000       340.59600       1.8460127     0.012385643
       146.00001       287.25455       98840.167       14559.172       4.5700000      -2.2065000     -0.11500000       340.54800       2.0454078     0.014162506
       151.00003       287.25591       98842.748       14548.476       3.9212500     -0.68725000      0.80100010       340.75100       1.8951808     0.013067315
       156.99999       287.20967       98833.410       14518.817       3.8142500     -0.92875000     -0.10525000       340.63900       1.9135810     0.013395799
       162.00001       287.19106       98829.418       14512.006       3.5570000      0.12675000      0.30175000       340.78000       2.0039256     0.014456346
       167.00002       287.21439       98823.793       14564.359       3.3790000     -0.66500000    -0.021500000       340.74800       2.0960126     0.017918304
       172.00003       287.20284       98818.963       14563.081       2.4487500      -1.8492500    -0.012250000       340.65100       2.0504363     0.015622312
       177.00001       287.16620       98819.559       14527.001       3.4837500    -0.074500000     -0.36075000       340.74700       1.9597645     0.014688751
       182.00002       287.14629       98815.220       14506.296       3.2967500     -0.52825000      0.14925000       340.76100       1.9408969     0.011461559
       187.00003       287.08128       98805.678       14433.957       2.8427500      -1.1062500      0.27600000       340.67100       1.7693602     0.012465271
       192.00000       287.08468       98798.636       14421.215       4.5055000      -1.0837500     -0.70500000       340.73400       1.9270626     0.014514604
       197.00002       287.16875       98783.090       14475.962       4.3277500      -1.3622500     -0.22650000       340.78400       1.8937484     0.013073461
       202.00003       287.20841       98781.904       14497.623       3.8135000     -0.71075000     0.023000000       340.62300       1.8650921     0.012999362
       207.00000       287.28033       98794.881       14536.936       4.1347500     -0.93450000      0.34500000       340.72600       1.9619789     0.015107356
       212.00002       287.31758       98800.947       14562.848       3.2645000     -0.62675010    -0.094500010       340.71400       1.9808202     0.013402388
       217.00003       287.28563       98813.500       14541.157       3.9685000      0.18300000      0.37200000       340.68400       1.8127598     0.012950810
       222.00000       287.29708       98823.245       14563.086       2.9745000     -0.94500010      0.10850000       340.68800       1.9371959     0.011687161
       227.00002       287.34796       98826.977       14635.439       5.2597500      -1.9400000     -0.30775000       340.51100       1.8152966     0.012238446
       232.00003       287.35674       98830.947       14665.572       3.1190000      -1.0220000     -0.11250000       340.64100       1.9120915     0.012303707
       237.00000       287.35560       98841.085       14692.576       3.2342500      -1.7912500      0.47650000       340.60000       1.7618024     0.014211944
       242.00002       287.35434       98842.646       14714.723       3.4415000      -1.9195000      0.10025000       340.57000       1.9424917     0.017109124
       248.00002       287.29175       98834.152       14687.164       4.3362500      -1.8292500     -0.42000000       340.47600       1.8275111     0.014545449
       253.00000       287.28909       98828.878       14697.880       1.8267500      0.36800000      0.34250000       340.76100       1.9322016     0.014878286
       258.00001       287.33722       98820.172       14746.528       1.7007500      -1.0072500      0.56500000       340.73100       2.0170327     0.013430855
       263.00002       287.35728       98812.146       14769.242       3.6087500     -0.78525000     -0.36425000       340.62200       2.0340957     0.011798398
       267.99999       287.39421       98803.095       14804.993       2.6252500     -0.56300000      0.30675000       340.76000       2.0000448     0.011714327
       273.00001       287.41026       98797.385       14809.274       5.2792500      -1.2590000      0.47950000       340.64000       1.9987139     0.012463580
       278.00002       287.38693       98784.766       14758.418       4.1820000      -1.0292500     0.089000000       340.48900       1.9282215     0.012767650
       282.99999       287.40050       98788.328       14764.353       3.3567500      -1.2977500     -0.35900000       340.60600       2.0403994     0.012100678
       288.00001       287.43833       98815.916       14784.745       3.8902500      -1.8517500     -0.26600000       340.59900       2.0719603     0.011198554
       293.00002       287.45807       98818.950       14809.721       2.8985000      -1.0685000     -0.50275000       340.56400       2.0071262     0.012254179
       298.00003       287.49499       98816.166       14867.170       2.4230000      -1.3710000      0.78375010       340.69700       1.9935272     0.012457869
       303.00001       287.51123       98817.067       14926.777       3.2755000      -1.1897500      0.11325000       340.62800       2.0476285     0.016018804
       308.00002       287.52732       98798.734       15015.907       4.6950000    -0.061500000     -0.16950000       340.61300       2.0395578     0.014953110
       313.00003       287.49971       98795.983       15046.845       1.5127500     -0.93475000      0.27525000       340.93500       2.1091474     0.013112952
       318.00001       287.42443       98816.673       15082.540       2.0295000      -2.8435000      0.37250000       340.89100       2.0852096     0.013772019
       323.00002       287.38434       98817.765       15071.492       4.7797500      -2.3672500     -0.30500000       340.64400       2.1021677     0.013329830
       328.00003       287.29683       98808.073       14970.879       4.0020000     -0.57900010     -0.33550000       340.56300       2.0642956     0.012046485
       333.00000       287.27737       98803.663       14914.131       3.7700000     -0.54025000     0.089250010       340.84800       2.0710417     0.016649430
       339.00001       287.34184       98790.500       14847.608       2.8512500      0.19400000      0.16300000       340.85000       2.0297955     0.013035459
       344.00003       287.36146       98786.368       14798.474       2.8225000     -0.80000000     -0.16975000       340.91500       1.8397913     0.011664135
       349.00000       287.37623       98786.807       14727.966       3.2175000     0.080250000     -0.34900000       340.86900       1.9187247     0.011664384
       354.00001       287.42279       98791.720       14732.796       3.3285000     -0.37375000      0.30600000       340.73900       1.9316019     0.011826233
       359.00002       287.48453       98800.686       14780.561       3.7582500      0.32300000     -0.41300000       340.78300       2.1325488     0.016328262
       364.00000       287.52486       98810.029       14824.000       3.5720000     -0.22275000      0.44800000       340.95300       2.0168186     0.013043622
       369.00001       287.61048       98830.979       14942.353       3.2740000     0.026000000      0.36850000       340.89200       1.8910322     0.013120563
       374.00002       287.62199       98835.885       14989.180       3.7485000      0.60150000     -0.23300000       340.66200       1.8172786     0.014627498
       379.00000       287.55789       98832.719       14976.653       4.5280000     -0.37250000     -0.48050000       340.51600       2.0225378     0.013690201
       384.00001       287.53804       98829.800       15014.431       3.8702500      0.35275000     0.058750000       340.74500       2.0222684     0.013297528
       389.00002       287.50114       98818.564       15059.351       2.8062500     -0.41275000      0.12075000       340.91100       1.9025424     0.014338242
       394.00000       287.48747       98810.623       15096.992       3.3337500    -0.067500000     0.012000000       340.86100       2.1659224     0.015518263
       399.00001       287.51131       98802.004       15192.713       3.6265000      0.48725000     -0.40550000       340.71200       1.9551577     0.012291342
       404.00002       287.49459       98796.535       15185.143       4.1462500     -0.46725000      0.27850000       340.64900       2.0236023     0.013766476
       408.99999       287.44755       98787.299       15103.495       4.0812500     -0.18075000     -0.50200000       340.73000       2.0374343     0.011505588
       414.00001       287.44400       98789.477       15058.306       1.9052500     -0.11150000      0.88400010       341.00700       2.1597424     0.026822295
       419.00002       287.42078       98801.001       14943.538       2.1595000     -0.98725000     0.040750000       340.88700       2.0041683     0.013689802
       423.99999       287.45885       98810.267       14921.985       3.3985000      -1.8807500      0.20025000       340.89900       2.0088199     0.010797084
       430.00000       287.59465       98830.324       14970.390       3.4137500      -1.4827500      0.19925000       340.97900       2.0064873     0.012228104
       435.00001       287.64528       98837.647       15002.590       2.5022500      -1.4132500     -0.29175000       340.79000       2.0456880     0.014695592
       440.00003       287.71548       98843.658       15082.781       2.6082500     -0.79100000     -0.22975000       341.01900       2.1068995     0.015702539
       445.00000       287.71848       98840.124       15107.371       2.4267500    0.0037500000      0.46375000       341.30400       2.0869384     0.011992454
       450.00001       287.64575       98828.376       15103.606       3.2472500      -1.2167500     -0.18075000       340.81400       2.0388533     0.015408632
       455.00003       287.64487       98818.650       15134.336       2.5167500      0.16575000      0.21850000       340.86100       2.1614779     0.014825780
       460.00000       287.63432       98799.889       15145.238       1.3485000     -0.11750000      0.81400000       341.49700       2.0359820     0.012296236
       465.00001       287.66159       98792.534       15204.326       3.3072500      0.26800000      0.15475000       340.66300       2.0313429     0.011185112
       470.00003       287.74936       98787.176       15323.840       4.0927500     -0.15675000   -0.0037500000       341.11300       2.0169962     0.012321252
       475.00000       287.78028       98790.609       15381.991       2.9002500     -0.32750000      0.28850000       340.75800       2.1319210     0.015609876
       480.00001       287.78445       98802.192       15436.573       2.4450000     -0.10125000     -0.38775000       340.86400       1.9969114     0.013422116
       485.00002       287.83268       98811.825       15474.916       3.1392500      0.27075000      0.11000000       341.20700       2.1102288     0.014733849
       490.00000       287.89015       98830.135       15477.823       2.3075000     -0.72750000     -0.27925000       341.25700       2.0156946     0.011669644
       495.00001       287.93045       98837.466       15499.799       3.3005000     -0.93600000      0.42075000       341.17700       2.0064611     0.012790214
       500.00002       288.01408       98842.532       15539.366       2.9990000      0.19325000     -0.17700000       340.98000       2.0186542     0.018690168
       505.00000       288.01833       98841.044       15534.891       3.8612500      0.44825000     -0.16500000       340.67300       2.0717606     0.011061601
       510.00001       287.96265       98833.599       15512.331       3.5355000      0.10700000    -0.019250000       340.77100       2.0705308     0.013691780
       516.00002       287.86967       98814.114       15440.969       3.6407500    -0.088250000     -0.39525000       340.95500       1.9951673     0.013233441
       521.00003       287.83748       98803.939       15397.850       3.6507500      0.26100000     -0.18950000       340.66100       2.0063587     0.015279897
       526.00000       287.82982       98796.237       15361.999       3.1432500      0.84900000     0.087500010       340.97800       1.9541354     0.012236419
       531.00002       287.85650       98786.967       15344.506       2.5712500     -0.20225000      0.18250000       341.26900       1.9635555     0.011635436
       536.00003       287.82530       98788.697       15277.129       2.2797500    -0.049250000      0.36475000       341.44000       1.8873702     0.012061702
       541.00000       287.79400       98798.437       15183.392       1.9030000      0.31075000      0.28750000       341.47100       1.9541160     0.011505296
       546.00002       287.74628       98819.392       15128.992       5.0810000       1.5985000     -0.78575000       340.99600       2.0560947     0.014020935
       551.00003       287.76968       98827.996       15128.906       3.7412500      0.61225000     -0.23800000       340.40000       1.8952959     0.013129910
       556.00000       287.93196       98834.441       15242.658       3.4987500      0.41550000     -0.27300000       341.38200       2.0576988     0.013008246
       561.00001       288.05094       98834.139       15340.087       4.0555000      0.24175000     -0.12475000       340.90000       1.9977939     0.012035090
       566.00003       288.24505       98814.206       15456.109       2.6490000      -1.1890000     0.071000000       341.43500       1.9624100     0.011127445
       571.00000       288.33092       98804.011       15571.663       4.5195000     -0.30375000      0.32125000       340.89800       1.9497418     0.016727438
       576.00001       288.35528       98796.288       15691.311       3.6885000     -0.31800000     0.038000000       340.78400       1.8303959     0.012975858
       581.00003       288.30731       98788.373       15820.503       3.9082500     -0.32400000      0.19225000       341.27800       1.9912478     0.012936458
       586.00000       288.30539       98785.776       15928.623       2.6927500      0.81175010      0.39925000       341.50000       2.0052762     0.015473529
       591.00001       288.25064       98788.552       16059.206       2.6532500      0.17125000     -0.35250000       341.05800       2.1248904     0.012195390
       596.00003       288.23911       98796.389       16034.487       5.3387500       1.9620000     -0.12225000       340.48900       2.3559065     0.012095870
       601.00000       288.21189       98804.130       15996.491       4.2555000      0.74650000      0.16575000       340.79800       2.8717183     0.014183662
