MIRICO/SHELL project - Processed LDS file generated on
Sun Jul 23 03:49:07 2017
Time stamp for record start
05/12/2017  10:37: 4.0000
Nb of points in the record
         985
Beam position index
       7.0000000
Beam angle (degrees)
       19.274000
Open Path length (m)
       33.730000
****************** Temporal data record ************************
Elapsedtime_sec Temp_K Press_Pa Humidity_ppmv WindX_m/s WindY_m/s WindZ_m/s Speedofsound_m/s CH4vmr_ppmv CH4vmrerror_ppmv  
      0.00000000       287.65497       98806.650       15082.092       1.6632500     -0.11525000       1.3540000       340.67400       1.6978082     0.022474387
       5.0000131       287.65622       98800.711       15103.536       3.3670000      -1.8835000     0.042250000       340.52200       1.7388023     0.029245273
       10.000026       287.66504       98789.267       15136.866       3.6855000      -1.7362500    0.0077500000       340.67900       1.8910270     0.024792821
       14.999999       287.63760       98785.889       15111.294       4.9467500      -2.1290000     -0.10400000       340.59200       1.8308995     0.016403769
       20.000012       287.55082       98790.354       15021.016       4.3227500      -2.4235000      0.38775000       340.68300       1.7713056     0.017475236
       26.000020       287.49984       98787.221       14914.652       2.8267500     -0.57250010      0.35950000       340.88100       1.7499983     0.022027629
       31.000033       287.48713       98788.902       14875.720       4.8165000     -0.49225000     -0.12950000       340.87500       1.7890434     0.024272082
       36.000006       287.49895       98793.041       14868.785       2.9530000      -1.8602500     -0.34025000       340.79700       1.8410460     0.015627704
       41.000019       287.56275       98799.704       14906.841       3.3215000      -1.3357500      0.73850010       340.75800       1.8085484     0.026784982
       46.000032       287.54015       98805.975       14898.217       3.7562500       1.5700000     0.038750000       340.69900       1.9262136     0.014865124
       51.000005       287.50634       98816.464       14912.350       2.0800000     -0.25975000     0.093500000       340.98700       1.9060386     0.015668956
       56.000018       287.43006       98818.768       14868.702       2.6820000      0.44925000      0.53850000       340.87100       1.7782358     0.022983048
       61.000031       287.38699       98820.922       14843.156       1.9042500    -0.048000000      0.86450000       340.87700       1.8565236     0.016226903
       66.000004       287.40002       98820.366       14849.311       2.1645000     -0.10150000      0.58350000       340.94200       1.7913935     0.015297685
       71.000017       287.40002       98820.401       14842.992       3.7357500      -1.4325000     0.060250000       340.82300       1.8602420     0.021430431
       76.000030       287.40002       98820.450       14832.504       5.0017500     -0.94575010     -0.16500000       340.66300       1.8728081     0.018381181
       81.000003       287.39986       98821.007       14818.853       4.5207500      0.98225000     -0.58775000       340.59300       1.8648908     0.019000441
       86.000016       287.39994       98818.883       14796.338       4.3875000      0.61575000      0.57725000       340.73200       1.8049655     0.017480735
       91.000029       287.40094       98816.644       14761.105       4.1787500     -0.58450000   -0.0090000010       340.77300       1.8722762     0.022114443
       96.000002       287.41502       98807.067       14757.925       3.3900000      -1.3615000      0.13200000       340.60000       1.8335891     0.017454163
       101.00002       287.40648       98799.987       14755.215       3.3257500      -1.0025000     -0.19800000       340.80500       1.7203360     0.025211415
       106.00003       287.38465       98788.810       14802.454       3.0037500     -0.25850000     -0.68400000       340.53600       1.8161228     0.020937108
       111.00000       287.35596       98783.586       14801.596       1.1920000     -0.48025000      0.38275000       340.84800       1.9673557     0.026968822
       117.00001       287.27560       98780.478       14750.563       3.1472500     -0.59425000    -0.098750000       340.76800       1.7835763     0.016382333
       122.00002       287.23684       98783.934       14713.835       4.3565000      -1.3287500      0.44950000       340.50900       1.8642894     0.019853248
       127.00000       287.19561       98796.279       14630.529       3.7125000      0.50400000      0.15425000       340.75700       1.7400526     0.023384841
       132.00001       287.18844       98806.413       14591.836       3.8412500     -0.90475000    -0.020250000       340.66700       1.6835029     0.033291037
       137.00002       287.24791       98823.994       14601.371       3.1622500     0.065500010      0.20450000       340.71900       1.8347539     0.016742772
       141.99999       287.25661       98833.737       14582.132       4.5967500     -0.57550000      0.59450000       340.63400       1.8329280     0.017071633
       147.00001       287.25581       98841.085       14556.900       4.6380000      -1.6595000     -0.45575000       340.67100       1.8368254     0.021243567
       152.00002       287.25470       98842.661       14546.536       3.7125000     -0.57475000    -0.088500000       340.75700       1.8384146     0.020545480
       156.99999       287.20967       98833.410       14518.817       3.5665000     -0.33175000      0.29400000       340.69500       1.8325349     0.020927975
       162.00001       287.19106       98829.418       14512.006       3.1415000     -0.32950000     0.019250000       340.67600       1.8226995     0.019622265
       167.00002       287.21439       98823.793       14564.359       3.0987500     -0.88325010      0.50450000       340.75600       1.8713707     0.016484430
       172.00003       287.20284       98818.963       14563.081       2.5257500      -1.1057500      0.17200000       340.83000       1.8752260     0.015593881
       177.00001       287.16620       98819.559       14527.001       3.7457500      -1.0432500     0.096250010       340.78300       1.8566195     0.018145824
       182.00002       287.14629       98815.220       14506.296       3.4437500     -0.50150000     -0.61200000       340.86300       1.7922679     0.018362572
       187.00003       287.08128       98805.678       14433.957       3.2170000      -1.6082500    -0.045250000       340.62000       1.7414457     0.025154555
       192.00000       287.08468       98798.636       14421.215       4.8662500      -1.4130000      0.25700000       340.72200       1.7491167     0.019700134
       197.00002       287.16875       98783.090       14475.962       3.6882500     -0.54525000      0.19800000       340.75600       1.8304234     0.019681461
       202.00003       287.20841       98781.904       14497.623       3.9445000      0.11300000      0.43675000       340.66000       1.7776701     0.015088951
       208.00000       287.28975       98795.998       14543.024       4.0590000     -0.29375000    0.0045000000       340.65500       1.8384330     0.020300298
       213.00001       287.32208       98802.305       14566.672       2.4687500     -0.57200000      0.90875010       340.70400       1.7770591     0.024745402
       218.00002       287.28690       98815.650       14544.016       5.3122500     -0.88400010    -0.064500000       340.48100       1.8513037     0.018898703
       223.00000       287.30090       98824.892       14569.765       4.3520000      -1.1000000      0.55700000       340.62200       1.8710729     0.014519936
       228.00001       287.35072       98827.771       14642.258       4.6540000      -1.9252500     -0.93575010       340.44600       1.7720263     0.022183161
       233.00002       287.35700       98831.741       14670.408       3.0445000      -1.1750000      0.10500000       340.55000       1.8127364     0.018457034
       238.00000       287.35634       98841.802       14698.091       3.9062500     -0.58900000     0.080750000       340.62400       1.8711831     0.014098161
       243.00001       287.35260       98842.351       14717.522       3.3650000      -1.9967500     -0.35175000       340.49000       1.8615707     0.015549210
       248.00002       287.29175       98834.152       14687.164       3.0597500      -2.2630000      0.76675000       340.62500       1.8825223     0.019427045
       253.00000       287.28909       98828.878       14697.880       2.0232500     -0.15000000     0.048250000       340.73200       1.8080552     0.016989672
       258.00001       287.33722       98820.172       14746.528       2.6947500      -1.2877500      0.37300000       340.68300       1.9511553     0.021847247
       263.00002       287.35728       98812.146       14769.242       3.7252500      -1.1597500      0.11950000       340.55000       1.9201111     0.019247905
       267.99999       287.39421       98803.095       14804.993       3.9862500      -1.0962500     -0.13950000       340.56000       1.7780863     0.021038729
       273.00001       287.41026       98797.385       14809.274       4.1742500      -1.9035000     -0.40700000       340.49100       1.8761226     0.019502335
       278.00002       287.38693       98784.766       14758.418       4.0832500      -1.3817500     -0.24950000       340.49900       1.8363370     0.016204200
       282.99999       287.40050       98788.328       14764.353       3.7367500     -0.95200000    -0.040000000       340.61600       1.9470357     0.022033014
       288.00001       287.43833       98815.916       14784.745       3.5327500      -1.6740000     -0.18950000       340.46200       1.8958545     0.015568886
       293.00002       287.45807       98818.950       14809.721       3.4105000      -1.4197500     0.036000000       340.56300       1.9304410     0.016543155
       299.00003       287.49922       98816.642       14878.656       2.7040000      -1.1930000      0.64125000       340.62800       2.1956189     0.028642061
       304.00000       287.51301       98816.804       14939.348       4.2500000      -1.3330000     -0.29450000       340.55800       1.7737362     0.019678194
       309.00001       287.52383       98797.575       15023.806       3.6832500      0.28175000      0.50825000       340.69800       1.8706123     0.016919698
       314.00003       287.49114       98796.347       15050.457       1.7892500      -1.3302500      0.66850000       340.95800       1.7690577     0.019111311
       319.00000       287.41641       98817.394       15083.490       2.3947500      -2.0635000     -0.37125000       340.57200       1.8503666     0.020357473
       324.00001       287.37631       98817.230       15064.555       2.7920000      -1.2565000      0.35500000       340.82300       1.9374335     0.020280195
       329.00003       287.28990       98807.285       14959.197       4.1720000      -1.1420000     -0.56250000       340.68400       1.8684757     0.014911859
       334.00000       287.27804       98802.641       14903.268       3.4110000     -0.38025000     -0.27300000       340.95000       1.8089238     0.019997128
       339.00001       287.34184       98790.500       14847.608       3.0502500     -0.70175000   -0.0062500000       340.74500       1.7881422     0.033610851
       344.00003       287.36146       98786.368       14798.474       3.1710000      -1.3120000     -0.62800000       340.95200       1.8621822     0.015268529
       349.00000       287.37623       98786.807       14727.966       3.0950000    -0.062250000     -0.13775000       340.88800       1.9181778     0.019631883
       354.00001       287.42279       98791.720       14732.796       2.9512500     -0.84175000      0.44425000       340.74500       1.8601755     0.015738490
       359.00002       287.48453       98800.686       14780.561       3.4622500     0.090750000      0.81475000       340.95100       1.9648327     0.019029819
       364.00000       287.52486       98810.029       14824.000       4.1245000     -0.59200000      0.70450000       340.87900       1.8440066     0.015902833
       369.00001       287.61048       98830.979       14942.353       3.0682500      0.19550000      0.78850000       340.89200       2.0364083     0.021726201
       374.00002       287.62199       98835.885       14989.180       3.7697500       1.3072500     0.058750000       340.82800       1.9119742     0.017248692
       379.00000       287.55789       98832.719       14976.653       4.9277500     -0.44625000     -0.36475000       340.63100       1.7037850     0.025084881
       384.00001       287.53804       98829.800       15014.431       3.1330000     -0.26725000    -0.048000000       340.86800       1.8633980     0.018746603
       390.00002       287.49742       98816.976       15066.583       2.8155000     -0.38325000     0.036750000       340.81800       1.7903432     0.028348358
       395.00003       287.48621       98809.035       15104.970       2.6892500     -0.11850000     -0.10425000       340.78000       1.7986558     0.016194436
       400.00000       287.50898       98800.816       15194.985       3.6977500      0.33450000      0.31300000       340.76200       1.7049823     0.021064637
       405.00002       287.48971       98795.583       15177.956       4.1100000     -0.14675000     0.031000000       340.59400       1.8249589     0.014682338
       410.00003       287.44584       98787.232       15095.243       4.0237500     -0.45625000     -0.30000000       340.59700       1.8176018     0.019913198
       415.00000       287.44480       98790.666       15048.086       1.7555000     -0.60975000      0.48425000       341.03800       1.8285121     0.019279829
       420.00002       287.42540       98802.662       14935.945       2.3980000     -0.93425010      0.18325000       341.00200       1.8732826     0.019968964
       425.00003       287.47095       98812.408       14922.594       2.7087500     -0.91350010      0.23775000       341.03500       1.9267638     0.018137735
       430.00000       287.59465       98830.324       14970.390       3.4280000      -1.3480000     -0.40700000       341.04900       2.0355611     0.027522566
       435.00001       287.64528       98837.647       15002.590       3.8892500      -2.0140000     -0.34700000       340.64700       1.8529118     0.020537086
       440.00003       287.71548       98843.658       15082.781       2.6120000      -1.1175000   -0.0077500000       340.91800       1.7571593     0.024293234
       445.00000       287.71848       98840.124       15107.371       1.8347500     0.015750000      0.39650000       341.06300       1.9212425     0.015303249
       450.00001       287.64575       98828.376       15103.606       3.7365000     -0.86400000    -0.097750010       340.91900       1.9470638     0.021299857
       455.00003       287.64487       98818.650       15134.336       2.8925000     -0.47325000      0.46325000       340.97300       1.8544293     0.017383313
       460.00000       287.63432       98799.889       15145.238       2.2037500     -0.34375000     0.087500010       341.18800       1.8854506     0.016627035
       465.00001       287.66159       98792.534       15204.326       3.3715000      0.54725000    -0.017250000       340.74400       1.9910723     0.023574082
       470.00003       287.74936       98787.176       15323.840       4.2865000      0.23500000     -0.21525000       340.68900       1.7155594     0.029744620
       475.00000       287.78028       98790.609       15381.991       3.0550000      0.50550000     -0.38000000       340.91500       1.9427170     0.024139431
       481.00001       287.79311       98803.922       15445.492       3.0910000     -0.19275000     -0.26275000       341.08400       1.8966195     0.014589583
       486.00002       287.84381       98814.047       15480.701       3.3820000      0.44625000     0.046000000       341.02500       2.0661739     0.023894462
       491.00003       287.89816       98831.899       15482.154       2.5805000      -1.2880000      0.87300000       341.03000       1.9127684     0.020179359
       496.00001       287.93859       98838.486       15504.290       4.1605000     -0.27150000     -0.69875000       340.43100       1.7542485     0.017937135
       501.00002       288.01793       98842.635       15540.043       3.1827500    -0.080000010     -0.18650000       340.90300       1.9105395     0.018356690
       506.00003       287.98464       98838.612       15527.438       3.4425000      0.10150000     -0.14775000       340.87100       1.9044831     0.016277100
       511.00000       287.95592       98831.973       15506.920       3.9690000      0.46350000      0.22050000       341.00300       1.8684793     0.020062206
       516.00002       287.86967       98814.114       15440.969       3.1717500    -0.010500000     -0.11650000       341.10700       2.1177029     0.027810936
       521.00003       287.83748       98803.939       15397.850       3.5632500    -0.062500000     -0.16500000       340.74500       1.8214054     0.018396417
       526.00000       287.82982       98796.237       15361.999       2.5525000      0.39075000    -0.025000000       341.11100       1.9799062     0.016839141
       531.00002       287.85650       98786.967       15344.506       2.3562500    -0.071000000     -0.37275000       341.29900       1.9462876     0.016230362
       536.00003       287.82530       98788.697       15277.129       2.6805000      0.29125000     0.042500000       341.29800       1.9403430     0.015865900
       541.00000       287.79400       98798.437       15183.392       2.3932500      0.57075000       1.1225000       341.78500       1.9323421     0.018914526
       546.00002       287.74628       98819.392       15128.992       3.8075000       1.2285000     -0.51025000       341.29800       1.9163003     0.021826146
       551.00003       287.76968       98827.996       15128.906       3.5385000      0.39750000     -0.12475000       340.74700       1.8247143     0.024340386
       556.00000       287.93196       98834.441       15242.658       3.5840000      0.14825000      0.42875000       340.96800       1.8203979     0.020138577
       561.00001       288.05094       98834.139       15340.087       3.8787500      0.17375000     -0.37175000       341.02400       1.8887077     0.020684347
       566.00003       288.24505       98814.206       15456.109       2.3212500     -0.96525010      0.78375010       341.48700       1.8830197     0.013832615
       572.00000       288.34072       98802.269       15595.286       3.7402500    -0.057250000      0.25675000       340.98300       1.8059291     0.018709633
       577.00001       288.29940       98793.172       15728.224       3.6180000     -0.93450000     -0.67850010       340.62400       1.7608618     0.033906206
       582.00002       288.30797       98787.552       15842.777       3.7395000      -1.1022500     -0.52900000       340.93000       1.8094936     0.016383362
       586.99999       288.28282       98786.099       16015.099       2.7622500     -0.20100000    -0.071250010       341.34700       1.8765985     0.026954338
       592.00001       288.24261       98789.544       16063.629       2.4747500      0.48725000    -0.099000010       341.24400       1.8737249     0.016983178
       597.00002       288.23563       98797.744       16030.765       5.3475000       1.8445000     -0.24200000       340.33000       1.9791634     0.024063772
       601.99999       288.20350       98805.968       15983.088       3.9957500       2.0592500     0.050750000       340.99500       2.0841119     0.024140312
