MIRICO/SHELL project - Processed LDS file generated on
Thu Jul 06 05:30:08 2017
Time stamp for record start
05/10/2017  13:24: 9.0001
Nb of points in the record
        1073
Beam position index
       1.0000000
Beam angle (degrees)
      -18.440000
Open Path length (m)
       34.890000
****************** Temporal data record ************************
Elapsedtime_sec Temp_K Press_Pa Humidity_ppmv WindX_m/s WindY_m/s WindZ_m/s Speedofsound_m/s CH4vmr_ppmv CH4vmrerror_ppmv  
      0.00000000       289.12810       99789.983       7624.6143       3.2502500       1.5900000      0.36850000       342.05300       2.0735667     0.010479183
       5.0000131       289.19569       99800.276       7656.4991       1.4182500       3.2397500     -0.25650000       341.56000       2.0805046     0.010535295
       9.9999860       289.11094       99805.536       7596.2629       1.6665000       2.3157500     -0.23300000       340.92300       2.0788185     0.010533932
       14.999999       288.90528       99804.972       7469.0245       1.1995000       1.8172500      -1.0522500       341.05500       2.1007588     0.012754459
       20.000012       288.83260       99807.033       7406.8049      0.73075000      0.68175010     -0.15125000       341.42900       2.0739234     0.017140656
       24.999985       288.72485       99811.570       7327.7472    -0.025000000       1.7375000      0.23425000       341.39600       2.0573276    0.0094590964
       30.999993       288.81537       99810.222       7328.2817      0.90725000       1.0630000      0.40525000       341.60500       2.0422268    0.0094471384
       36.000006       288.85622       99806.447       7318.6761       1.1792500       2.1852500    -0.010250000       341.65500       2.0314910     0.012310793
       40.999979       288.88478       99800.214       7307.8226      0.80325000       2.3637500     -0.43000000       341.19100       2.0963858     0.012981938
       45.999992       288.90668       99790.492       7297.3400      0.65625010       1.6987500     -0.93925010       341.29800       2.0938074     0.014051434
       51.000005       288.91526       99783.430       7289.8649      0.52475010       1.4407500     0.086750000       341.96700       2.0814468     0.010629055
       55.999978       288.90625       99773.974       7278.9880      0.55975000       1.5990000     -0.27025000       341.61100       2.0754634     0.013225164
       60.999991       288.86942       99770.131       7274.7490      0.13125000       2.1737500     -0.31725000       341.56500       2.0185947     0.010310270
       66.000004       288.84917       99768.806       7274.2677      0.50975000       2.2175000    -0.055500000       342.08600       2.0876725     0.014454356
       70.999977       288.79966       99770.386       7267.3275       1.0465000       4.1810000     -0.97575000       340.84500       2.0142437    0.0091540931
       75.999990       288.78762       99774.157       7274.1542       1.2702500       3.3497500     -0.12425000       340.86100       2.0042675     0.010415610
       81.000003       288.82994       99783.314       7268.5799      0.76350000       2.6510000     -0.20425000       340.62600       2.0666035     0.012374211
       85.999976       288.84973       99790.271       7305.1380      0.11300000       1.9632500      0.15125000       341.79200       2.0667584    0.0096160576
       90.999989       288.86952       99797.215       7368.5860      0.30700000       1.4997500      0.13350000       341.45500       2.0393002     0.010343330
       96.000002       288.88660       99807.324       7450.5184     -0.50275000       1.8660000     -0.12125000       340.48200       2.0598379     0.013423497
       100.99998       288.95977       99809.002       7570.6404      0.19475000       2.4415000     -0.44650000       341.60200       2.0243617    0.0084410362
       105.99999       289.04997       99805.864       7764.2667     0.055250000       3.2895000     -0.39725000       340.76700       2.0642355     0.013466202
       111.00000       289.16924       99806.203       7833.3814      0.46750000       2.1932500     -0.67625000       341.53200       2.0404688    0.0098525826
       115.99997       289.22527       99801.454       7872.4018      0.64425000       2.0767500     -0.15000000       341.84800       2.0418839    0.0096600102
       121.99998       289.18009       99792.771       7793.3927      0.28375000       2.8372500     -0.36225000       341.18900       2.0348055    0.0092909923
       127.00000       289.14904       99784.552       7740.1593    -0.023000000       1.6647500    -0.043000000       341.23600       2.0192576     0.010758018
       132.00001       289.07697       99766.766       7674.1635    -0.099250000       2.0892500     -0.31575000       340.86400       1.9920508    0.0090169504
       136.99998       289.03861       99757.290       7626.5462      0.17250000       2.0602500     -0.28150000       340.82900       2.0712549     0.011126490
       141.99999       289.01015       99747.963       7569.3002      0.93575010       1.6527500    0.0082500000       340.93500       2.0037908    0.0089275789
       147.00001       288.99131       99747.562       7535.5380      0.60850000       1.8985000    -0.075500000       341.13000       2.0714985     0.011387168
       151.99998       288.95767       99757.965       7502.8230      0.72675000       1.6152500     -0.36050000       341.55800       2.0356724     0.011142210
       156.99999       288.99095       99766.305       7519.5329      0.28425000       1.7525000      0.53850000       342.00100       2.0276752     0.010284644
       162.00001       289.07473       99782.974       7576.8175      0.66350000       1.6990000     -0.45650000       341.68200       2.1177382     0.017081357
       166.99998       289.15697       99793.642       7641.3716      0.25375000      0.13950000      0.76575010       342.32100       2.0647697     0.010007872
       171.99999       289.31017       99803.142       7764.4132     -0.37300000       1.4440000    -0.038500000       341.57200       2.0555026     0.010852833
       177.00001       289.42806       99807.763       7866.3175     -0.63650000       2.5717500     -0.16200000       341.18500       2.0684906     0.011954424
       181.99998       289.56160       99809.131       7976.6960     -0.34375000       2.0737500      0.71150000       342.04600       2.0069883     0.010682511
       186.99999       289.62771       99806.815       8062.8417     -0.75500010       4.0042500     0.042250000       341.15200       2.0404902     0.010200961
       192.00000       289.65971       99796.099       8159.3605      0.36700000       2.1302500      0.23300000       341.92400       2.0273102     0.010882197
       196.99998       289.66627       99789.123       8206.2027      0.39925000       1.8792500     0.077750000       342.08800       2.0834290     0.011510087
       201.99999       289.57524       99781.457       8205.6012      0.99550000      0.97800000      0.77900000       342.68500       2.1139348     0.011400589
       207.00000       289.53597       99773.386       8196.5939      0.21325000       2.9575000     -0.61925010       341.08700       2.0820732     0.012095026
       213.00001       289.51786       99760.551       8133.9452       2.1862500       1.7100000      0.15075000       342.68800       2.0500591     0.010129769
       217.99998       289.48812       99757.682       8091.6616      0.53600000       2.0550000      0.48725000       342.04500       2.0070788     0.010293605
       223.00000       289.47653       99757.441       8046.3890       2.2702500       2.6237500     -0.33625000       340.94300       2.0463193     0.014383505
       228.00001       289.44261       99759.645       7998.0494       1.0732500       2.7127500      0.14600000       341.35300       2.0581729     0.010988880
       232.99998       289.35423       99769.151       7924.9819      0.43300000       2.5707500     -0.82225010       341.26200       2.0211661     0.010439205
       238.00000       289.33152       99778.574       7897.8887      0.13400000       2.9857500     -0.33575000       341.53300       2.0485421     0.010518356
       243.00001       289.34311       99792.787       7904.9362       1.6560000       1.8675000     0.095750000       341.72900       2.0507169     0.012809690
       247.99998       289.34671       99799.139       7888.0142      0.92525010       1.7872500     -0.13375000       341.87400       2.0429192     0.010168545
       253.00000       289.38196       99804.918       7878.8532      0.46750000       1.6050000      0.22350000       342.35800       2.0865613     0.012865091
       258.00001       289.41142       99807.656       7883.0930       1.1202500       2.2167500      0.16475000       341.92400       2.0242382     0.010278421
       262.99998       289.47705       99804.897       7878.9452      0.95925000       3.1495000    -0.026500000       340.49800       2.0518007    0.0094750029
       267.99999       289.45633       99799.311       7876.4598       1.6072500       3.4925000     -0.23425000       341.49000       2.0809493     0.011837285
       273.00001       289.38388       99791.702       7908.6202      0.78275000       2.7597500     -0.38225000       341.44100       2.0534685     0.010740743
       277.99998       289.33999       99782.859       7913.0632      0.76300000       3.0922500      0.73600010       342.10700       2.0692767     0.013602216
       282.99999       289.21671       99761.798       7880.4037      0.60975000       3.2225000     -0.47750000       341.27100       2.0530315     0.010088248
       288.00001       289.16743       99755.606       7873.0614     -0.49850000       3.2050000     -0.22075000       341.70400       2.0883665     0.013340642
       292.99998       289.22543       99755.236       7883.1935     -0.57150000       2.8367500     -0.28950000       340.84700       2.0383912     0.010437500
       297.99999       289.19815       99760.107       7877.2039      0.60225000       2.6645000     -0.32200000       340.70700       2.1333340     0.014855800
       304.00000       289.14950       99781.702       7883.5072      0.14850000       2.6190000     -0.24500000       341.55900       2.0499901     0.010429316
       309.00001       289.06145       99792.047       7851.5642     0.035750000       2.7905000     -0.25600000       340.48000       2.0652232     0.010371489
       313.99999       288.87828       99805.350       7782.7441      0.25500000       1.8420000      0.31975000       341.19100       2.0647954     0.011583183
       319.00000       288.79099       99809.750       7737.0701     0.023500000       1.9182500     -0.41150000       340.58600       2.0253618     0.010891508
       324.00001       288.70349       99808.068       7670.5058     -0.72425000       1.3495000     0.085250010       340.77400       2.0655905    0.0096469081
       328.99999       288.66219       99804.132       7633.6807     -0.60950010       1.1897500      0.12700000       340.83100       2.0220929     0.010061132
       334.00000       288.69984       99792.824       7619.5045     0.073000010       1.2972500      0.18425000       341.17200       2.0002128     0.010497547
       339.00001       288.69989       99785.810       7605.3828      0.18675000       1.3735000    -0.047750000       341.38100       2.0432203    0.0089813672
       343.99998       288.68855       99778.564       7596.4937    -0.025500000      0.71825000    -0.094750000       340.87100       2.0511595    0.0095683732
       349.00000       288.70459       99770.683       7597.1826       1.3087500      0.83425000     -0.11275000       341.10300       2.0666191     0.012001080
       354.00001       288.71921       99759.714       7589.0485       1.1682500       1.1922500      0.28975000       341.32600       2.0063602     0.010094099
       358.99998       288.77104       99757.552       7631.3278     -0.22950000      0.86500010      0.37325000       342.01200       2.1050792     0.014242730
       364.00000       288.86996       99755.064       7721.9725      0.27550000       1.0070000      0.13950000       341.66400       2.0923951     0.010673818
       369.00001       288.94035       99761.219       7776.8731     0.078750010      0.92925010     -0.24025000       340.59300       2.0639521     0.010298653
       373.99998       289.03908       99782.542       7860.6399      0.26500000      0.93775000     -0.19425000       340.58200       2.0155817    0.0098708489
       379.00000       289.08687       99791.321       7910.5042      0.30600000      0.84400000     0.020250000       341.18800       2.0389363    0.0095186638
       384.00001       289.12185       99802.117       7935.9006     -0.20350000       1.1197500      0.42100000       341.33600       2.0948966     0.012634160
       389.99998       289.09542       99802.424       7929.6338     0.083250000      0.78300010     -0.15250000       341.15600       2.0555229    0.0095294563
       394.99999       289.00768       99792.274       7906.5969      0.52775000       1.2695000    -0.031000000       341.15500       2.0445397     0.010227446
       400.00000       288.96787       99786.518       7877.5092      0.65825000       1.2950000     -0.27550000       340.79700       2.0908222     0.012779845
       404.99998       288.87498       99776.980       7793.0030      0.63075000       1.1682500    -0.067750010       340.87000       2.0455336     0.010169318
       409.99999       288.89088       99768.879       7776.1864      0.90650000       1.8082500      0.20100000       341.07200       2.1214855     0.013238034
       415.00000       289.00150       99760.894       7803.5021      0.34100000       3.2275000     -0.29525000       341.33000       2.0612269     0.010210196
       419.99997       289.02300       99755.811       7783.5299      0.27225000       2.1790000     -0.17225000       341.62400       2.0772242     0.012621346
       424.99999       289.06034       99745.308       7769.8862       1.1942500       2.6132500     -0.43250000       340.55100       2.0580833     0.010864756
       430.00000       289.06309       99752.412       7735.9614       1.1067500       1.8165000     -0.27225000       340.72400       2.0651158    0.0092521532
       434.99997       288.99643       99773.303       7655.9897    -0.057500000       1.2092500      0.30725000       342.46500       1.9842103     0.010052873
       439.99999       288.98518       99783.199       7627.0226     -0.25000000       1.8277500    -0.075250010       340.80700       2.0572553     0.010874437
       445.00000       288.99946       99803.608       7602.6014   -0.0037500000       1.5147500     0.080000010       341.48600       2.1032693    0.0096441575
       450.00001       288.99916       99805.574       7621.1029      0.70150010       2.4367500     0.073250000       341.74800       2.0970199     0.010715742
       454.99999       288.97204       99792.035       7661.0338      0.48475000       1.7280000      0.20950000       341.48500       2.0120840     0.011062748
       460.00000       289.02902       99786.031       7740.2147      0.53725000       1.4080000      0.38525000       342.36100       2.0646639     0.011029590
       465.00001       289.11102       99772.203       7864.8405      0.88050000      0.68400000      0.38275000       342.01000       2.0819022     0.011109615
       469.99999       289.22762       99773.425       7991.4492      0.89375010       1.6552500     -0.15050000       340.79900       2.0639582    0.0099398717
       475.00000       289.43156       99785.757       8160.4388      0.78425000       1.8020000     -0.15275000       340.95400       2.1377396     0.022421135
       481.00001       289.63069       99786.878       8384.2832      0.59000000       1.6325000     -0.30000000       341.10100       2.1658272     0.015023349
       485.99998       289.72450       99790.988       8486.8766      0.10350000       1.4185000     -0.42375000       341.45800       2.0822735     0.010000863
       490.99999       289.76903       99793.861       8534.9215     0.031500000      0.53050010      0.66150000       341.90000       2.0127389     0.010398625
       496.00001       289.76281       99788.826       8541.5738       1.1987500       1.3640000     -0.23100000       341.85200       2.1566101     0.015151280
       500.99998       289.75930       99791.147       8502.0730       1.3347500      0.70150010      0.42525000       342.47500       2.0869279     0.010433528
       505.99999       289.69431       99802.752       8373.0343      0.28700000      0.36150000      0.15675000       341.96600       2.0310930    0.0094465919
       511.00000       289.71495       99795.617       8290.6443     -0.14475000      0.95650010     -0.24700000       342.35300       2.0552002     0.011920043
       515.99998       289.70637       99790.670       8215.7883      0.19750000      0.86800000    -0.080000010       341.34600       2.0906068     0.010736915
       520.99999       289.63955       99783.050       8133.6867      0.17125000      0.94500010      0.72200010       341.85700       2.1235639     0.014088815
       526.00000       289.63720       99775.085       8072.4675     0.091000010       1.4162500    -0.016000000       341.34700       2.0395665     0.010418354
       530.99998       289.66019       99761.401       8019.0223     0.013000000       2.6237500      0.12675000       342.58100       2.1050060     0.012502576
       535.99999       289.68729       99757.948       7983.3247     -0.98325000       2.4962500     -0.23975000       341.98900       2.0808650    0.0097089652
       541.00000       289.73892       99759.412       7964.3170    -0.078000000       2.0872500     -0.12225000       342.18900       2.0565278    0.0097325930
       545.99998       289.88840       99762.573       7983.5589      0.82275000       1.9142500      0.18225000       342.73000       2.0347056     0.010255658
       550.99999       289.84001       99771.253       7932.7955       1.3407500       1.3325000      0.72025000       342.45700       2.1240584     0.013681899
       556.00000       289.71845       99793.219       7872.6418       1.4187500       2.4947500    -0.098000000       341.24800       2.0194485     0.010548500
       560.99997       289.49961       99791.214       7751.6925       1.6052500       1.8617500     -0.24400000       341.71900       2.1223576     0.013299660
       565.99999       289.37291       99791.478       7680.9814      0.35200000       1.1980000      0.18825000       342.65600       2.0355602     0.010437139
       572.00000       289.31936       99786.386       7656.7546     -0.20100000       1.9937500     0.048250000       341.99100       2.0235798     0.010630438
       577.00001       289.28212       99779.285       7629.2609    -0.072000000       1.5722500      0.28625000       342.32400       2.1022316     0.015040193
       581.99998       289.31463       99770.317       7627.2274     -0.30850000       1.6242500      0.10300000       342.80700       2.0919114     0.011460494
       586.99999       289.30322       99764.341       7610.8851     -0.27675000       2.4422500    -0.025000000       342.22200       2.0504408     0.010629563
       592.00001       289.27988       99749.298       7569.6728      0.29275000       2.7450000     -0.43475000       342.22800       2.1175215     0.016958387
       596.99998       289.24847       99747.204       7552.5405       1.9715000       2.5267500     -0.33550000       340.74400       2.1250153     0.014893747
       601.99999       289.20269       99757.965       7562.0763       1.5865000       1.4717500     -0.12525000       341.34000       2.1397540     0.015830257
