MIRICO/SHELL project - Processed LDS file generated on
Thu Jul 06 05:30:36 2017
Time stamp for record start
05/10/2017  13:24:10.0000
Nb of points in the record
        1073
Beam position index
       2.0000000
Beam angle (degrees)
      -8.6100000
Open Path length (m)
       64.850000
****************** Temporal data record ************************
Elapsedtime_sec Temp_K Press_Pa Humidity_ppmv WindX_m/s WindY_m/s WindZ_m/s Speedofsound_m/s CH4vmr_ppmv CH4vmrerror_ppmv  
      0.00000000       289.12534       99791.169       7619.4382       4.0757500       1.3350000      0.31225000       341.74100       1.9715642    0.0084508776
       5.0000131       289.18384       99801.528       7647.3029       2.0130000       2.7560000     -0.27975000       341.60100       1.9240452    0.0078385843
       9.9999860       289.08634       99806.288       7579.9713      0.49050000       3.2982500     -0.46425000       341.17800       1.9967743    0.0058904437
       14.999999       288.88873       99805.383       7455.7635       1.1547500       1.4682500     -0.51550000       341.23200       1.9051132    0.0085059000
       20.000012       288.77587       99810.313       7373.4877       1.0212500       1.5077500    -0.071000000       341.65800       1.9515821    0.0070526153
       24.999985       288.71841       99811.633       7319.1484      0.80750010       1.8910000      0.17275000       341.54300       1.9697023    0.0075768109
       29.999998       288.81537       99810.222       7328.2817     0.089750010       1.4325000      0.52475010       341.77600       1.9622814    0.0073752869
       35.000011       288.85622       99806.447       7318.6761      0.90975000       1.4585000      0.18425000       342.25200       1.9515309    0.0091596710
       39.999984       288.88478       99800.214       7307.8226      0.44850000       2.7332500     0.096500000       341.27400       1.8938047     0.011067426
       44.999997       288.90668       99790.492       7297.3400    -0.018500000       2.1000000     -0.83925000       341.67700       1.9516646    0.0074826225
       50.000010       288.91526       99783.430       7289.8649      0.22250000       1.1905000      0.23650000       341.87200       1.8921372     0.010204412
       54.999983       288.90625       99773.974       7278.9880      0.57800000       1.2825000      0.43525000       341.93400       1.9448643    0.0070919653
       59.999996       288.86942       99770.131       7274.7490      0.40025000       2.1715000     -0.27075000       341.69400       1.9267665    0.0080029763
       65.000010       288.84917       99768.806       7274.2677      0.47500000       2.2877500     -0.21125000       342.07600       1.9343018    0.0094436209
       69.999982       288.79966       99770.386       7267.3275       1.5745000       3.0157500    -0.095250000       341.80000       1.9389014     0.010817704
       74.999996       288.78762       99774.157       7274.1542       1.1072500       3.2780000     -0.15625000       340.80500       1.9303203    0.0082962348
       81.000003       288.83390       99784.707       7273.7453      0.70975010       2.6260000    0.0070000000       340.96300       1.9479249     0.011037351
       86.000016       288.85369       99791.661       7315.6734      0.81225000       1.9830000     -0.58200000       340.95700       1.9636851    0.0093125071
       90.999989       288.84647       99803.291       7377.8876      0.00000000       1.6460000     0.021500000       341.85300       1.9375130    0.0073574777
       96.000002       288.89919       99807.958       7471.9146     -0.42700000       1.8157500    -0.080500010       340.48100       1.9336224    0.0093780147
       101.00002       289.00181       99805.849       7684.1070     -0.53925000       2.4472500     -0.42050000       340.91200       1.9237186    0.0085990339
       105.99999       289.06202       99805.748       7780.0067      0.26450000       2.8577500    -0.074250010       340.77300       1.9449373    0.0088182670
       111.00000       289.18450       99805.453       7845.2426      0.56775000       2.3237500    -0.043250000       341.46600       1.9440527    0.0098589174
       116.00001       289.23040       99800.204       7874.0979      0.36175000       2.2357500     0.067250010       341.76600       1.9146515    0.0095405771
       120.99999       289.18009       99792.771       7793.3927     0.057500000       2.4310000    -0.026750000       341.14200       1.9514107    0.0067208907
       126.00000       289.14904       99784.552       7740.1593     0.073250000       1.8732500     -0.36750000       341.37100       1.9615396    0.0079078281
       131.00001       289.07697       99766.766       7674.1635     0.088250000       2.3985000     -0.30500000       340.82000       1.9472532    0.0086799319
       135.99999       289.03861       99757.290       7626.5462      0.11925000       2.0290000     -0.19675000       341.02200       1.9243385     0.010422467
       141.00000       289.01015       99747.963       7569.3002      0.70125000       1.7415000    -0.029500000       341.30700       1.9417554     0.010365316
       146.00001       288.99131       99747.562       7535.5380      0.89775000       2.5072500     -0.16100000       341.26500       1.9239253    0.0087056532
       150.99999       288.95767       99757.965       7502.8230      0.63100000       1.5960000     -0.13550000       341.52200       1.9280079    0.0092775695
       156.00000       288.99095       99766.305       7519.5329      0.42450000       1.5335000    -0.069500010       341.83200       1.9262769    0.0077085230
       161.00001       289.07473       99782.974       7576.8175      0.75825010       1.8950000     -0.80275010       341.59000       1.9689737    0.0075514378
       165.99998       289.15697       99793.642       7641.3716     -0.18550000      0.86275010       1.0452500       342.22400       1.9320337    0.0092460742
       171.99999       289.33473       99804.360       7784.9948     -0.53350000       1.2590000     0.039250000       341.44500       1.9715501    0.0070083039
       177.00001       289.45017       99808.247       7886.3908     0.076000010       2.3967500    -0.087500010       341.09300       1.9420846    0.0085557272
       182.00002       289.57780       99808.973       7994.9607     0.090750000       2.9347500      0.34025000       341.71600       1.9324228    0.0078486052
       186.99999       289.63646       99805.893       8078.4981     -0.33975000       3.5120000      0.23325000       341.23800       1.9199837    0.0094528323
       192.00000       289.66402       99794.701       8171.4493      0.44800000       2.0157500      0.36550000       341.90700       1.9330879    0.0064218595
       197.00002       289.66308       99787.731       8211.4776      0.47800000       1.4785000      0.45000000       342.30000       1.9357479    0.0099379379
       201.99999       289.56634       99779.836       8205.5581       1.0280000      0.55000000      0.47475000       341.83700       1.9844356    0.0064913662
       207.00000       289.52968       99771.782       8192.1621      0.41150000       3.0987500     -0.36925000       341.13200       1.9424625    0.0066993390
       212.00002       289.51786       99760.551       8133.9452       2.0560000       1.3552500      0.53675000       342.83100       1.9510922    0.0092564485
       216.99999       289.48812       99757.682       8091.6616      0.14225000       1.6275000    -0.035500000       342.10600       1.9418588    0.0084952454
       222.00000       289.47653       99757.441       8046.3890       2.0240000       2.1837500     -0.27750000       340.86600       1.9992358    0.0096929216
       227.00002       289.44261       99759.645       7998.0494       2.5682500       1.4722500       1.0337500       341.35000       1.9244513    0.0076256092
       231.99999       289.35423       99769.151       7924.9819      0.88600000       2.7765000      0.15750000       341.06600       1.9390607    0.0068184698
       237.00000       289.33152       99778.574       7897.8887      0.27550000       2.3775000      0.22375000       341.58600       1.9259855    0.0085126869
       242.00002       289.34311       99792.787       7904.9362       1.6520000       1.4347500    -0.012750000       341.87800       1.9530654    0.0070024969
       246.99999       289.34671       99799.139       7888.0142       1.4315000       1.8817500     -0.24300000       341.74700       1.9756324    0.0098374573
       252.00000       289.38196       99804.918       7878.8532      0.44025000       1.8880000     -0.20750000       342.32800       1.9587290    0.0093483771
       257.00001       289.41142       99807.656       7883.0930     -0.63750000       2.8857500      0.55050000       341.77400       1.9873430    0.0075909924
       262.99998       289.47585       99803.976       7877.8804       1.2417500       3.2947500    -0.040500000       340.49900       1.9657606    0.0069161258
       267.99999       289.44777       99797.901       7876.8097       2.2692500       3.1320000      0.15500000       341.39900       1.9492082    0.0099626416
       273.00001       289.37618       99790.145       7910.5878      0.27175000       2.4657500      0.46250000       341.58400       1.9589000    0.0074942711
       277.99998       289.32959       99780.773       7912.3348      0.70900010       3.6025000      0.40725000       341.93300       1.9546929    0.0075856738
       282.99999       289.20385       99760.060       7878.3863     -0.69225000       3.2077500     0.014250000       341.48600       1.9606060    0.0097471103
       288.00001       289.16208       99755.117       7872.4193     -0.12300000       2.8725000      0.31625000       341.73600       1.9756941    0.0067459727
       292.99998       289.22198       99755.709       7882.3106      0.64050000       3.1992500      0.14775000       341.43600       1.9726550     0.010523482
       297.99999       289.18967       99761.833       7875.5322      0.66550000       3.1387500    -0.075750000       340.85000       2.0066107     0.010050255
       303.00001       289.14950       99781.702       7883.5072      0.58150010       2.6180000     0.052750000       341.51200       1.9984068     0.010234061
       308.00002       289.06145       99792.047       7851.5642      0.39200000       2.7742500     -0.34075000       340.54200       1.9348157    0.0072255005
       312.99999       288.87828       99805.350       7782.7441     -0.33700000       1.5712500      0.52700000       341.44000       1.9909784    0.0073228943
       318.00001       288.79099       99809.750       7737.0701     -0.12925000       2.0525000     -0.19700000       340.58800       1.9177356     0.010827304
       323.00002       288.70349       99808.068       7670.5058    -0.089000000       1.1182500     -0.33650000       340.60700       1.9608398    0.0058914524
       327.99999       288.66219       99804.132       7633.6807     -0.62550000       1.2757500      0.15300000       340.76500       1.9662634    0.0063117850
       333.00000       288.69984       99792.824       7619.5045   -0.0087500000      0.98700000      0.29225000       341.27100       1.9563371    0.0092825356
       338.00002       288.69989       99785.810       7605.3828     0.074000000       1.5625000     -0.10200000       341.28500       1.9883249    0.0088528799
       342.99999       288.68855       99778.564       7596.4937     0.060250000      0.57650000    -0.095500010       340.93100       1.9360243    0.0066704042
       348.00000       288.70459       99770.683       7597.1826       1.1655000      0.82325010      0.51075000       341.21300       1.9857209    0.0078567818
       354.00001       288.72761       99758.988       7595.3058       1.2682500       1.3597500      0.16675000       340.99500       1.9317569    0.0094985386
       358.99998       288.78435       99757.562       7643.0959      0.10425000      0.44275000      0.37925000       341.93600       1.9544491    0.0090380151
       364.00000       288.88398       99755.786       7732.9075     0.084750000       1.0735000      0.16850000       341.63500       1.9370289    0.0099219827
       369.00001       288.95451       99763.214       7787.9209    -0.022000000      0.99975000     -0.28200000       340.59500       1.9659941     0.010517319
       373.99998       289.05065       99784.499       7872.1495      0.23200000      0.81150000     0.055500000       341.11600       1.9662682    0.0075731031
       379.00000       289.09341       99792.776       7918.1606     0.022000000      0.85850010     -0.21425000       341.57500       1.9808768    0.0068321459
       384.00001       289.12123       99802.801       7936.9947     -0.63150000       1.4302500      0.58150010       340.82200       1.9525855    0.0065389328
       388.99998       289.09542       99802.424       7929.6338      0.14825000      0.77250000     -0.36300000       341.29000       1.9371082     0.010661555
       394.00000       289.00768       99792.274       7906.5969      0.83975010       1.4242500     -0.10375000       341.44900       1.9424896     0.013389227
       399.00001       288.96787       99786.518       7877.5092      0.77350000       1.5217500     -0.26375000       340.85000       1.9484411    0.0093218191
       403.99998       288.87498       99776.980       7793.0030      0.44100000       1.8897500     -0.41275000       340.86000       1.9405206    0.0089990681
       408.99999       288.89088       99768.879       7776.1864      0.42500000       1.5472500      0.27650000       341.44900       1.9484698    0.0085995372
       414.00001       289.00150       99760.894       7803.5021      0.76825000       2.4265000     -0.47050000       341.52500       1.9296527     0.010534083
       418.99998       289.02300       99755.811       7783.5299      0.39750000       2.5480000     -0.41050000       341.90300       1.9242290    0.0093322330
       423.99999       289.06034       99745.308       7769.8862       1.3550000       2.2692500    0.0055000000       341.32800       1.9228102    0.0083945910
       429.00001       289.06309       99752.412       7735.9614      0.77500000       1.8547500     -0.21575000       340.76500       1.9714653    0.0067225568
       433.99998       288.99643       99773.303       7655.9897      0.45625000       1.8512500     -0.33125000       341.98900       1.9547499    0.0083326633
       439.99999       288.99966       99795.836       7607.7281      0.29575000       2.3707500     -0.51425000       341.19300       1.9439916     0.011725663
       445.00000       288.99940       99804.690       7604.0876      0.11400000       1.9772500      0.34025000       341.57200       1.9855726    0.0090415521
       450.00001       288.99909       99804.934       7628.1245      0.20525000       2.7740000     0.081500000       341.78600       1.9691077    0.0086655685
       454.99999       288.98039       99790.941       7674.1598      0.90225010       1.6770000      0.20200000       341.45700       1.9448760    0.0086049388
       460.00000       289.04499       99784.670       7760.1468       1.0200000      0.57500000      0.54300000       343.32800       1.9529246     0.010395959
       465.00001       289.13133       99771.949       7888.5608      0.65550010       1.1892500    -0.088000010       341.38500       1.9750680    0.0096866472
       469.99999       289.31648       99783.882       8047.9681      0.79975000       1.7242500     0.038500000       341.04700       1.9669733    0.0086908877
       475.00000       289.45893       99786.090       8188.1929      0.63025000       1.6452500     0.042000000       341.01900       1.9547088    0.0092624931
       480.00001       289.63069       99786.878       8384.2832      0.32775000       1.6030000     -0.35700000       341.05100       1.9631769    0.0063950498
       484.99998       289.72450       99790.988       8486.8766     -0.27350000       1.2327500      0.53375000       341.32100       1.9578313     0.010215363
       490.00000       289.76903       99793.861       8534.9215      0.52000000      0.51300000      0.67050000       342.52100       1.9589380    0.0088852759
       495.00001       289.76281       99788.826       8541.5738       1.1857500       1.2752500     -0.22600000       341.37100       1.9434804    0.0095283482
       499.99998       289.75930       99791.147       8502.0730       1.1940000       1.1242500     -0.31700000       341.06300       1.9185186     0.011141394
       505.00000       289.69431       99802.752       8373.0343      0.10425000      0.33400000    -0.033000000       342.02600       1.9624353    0.0067262244
       510.00001       289.71495       99795.617       8290.6443      0.14900000      0.96025000     -0.28650000       342.41500       1.9508662    0.0097636849
       514.99998       289.70637       99790.670       8215.7883      0.33925000      0.63925000    -0.024500000       341.34500       1.9753592    0.0066542098
       520.00000       289.63955       99783.050       8133.6867     -0.40450000      0.81625000      0.49125000       342.79200       1.9524156    0.0084880509
       525.00001       289.63720       99775.085       8072.4675     0.045250000       1.3157500    -0.011500000       341.47200       1.9569459    0.0084722592
       531.00002       289.66365       99760.317       8010.5415      -1.1230000       1.9597500     -0.69500010       341.67900       1.9063989    0.0090520528
       535.99999       289.69566       99757.848       7978.1912     -0.68100010       3.0380000     -0.28125000       341.84400       1.9371993    0.0085066468
       541.00000       289.87264       99759.341       8008.2758     -0.17875000       1.5682500     -0.64025000       341.87500       1.9823319    0.0084528489
       546.00002       289.88478       99763.897       7975.1575      0.73050000       1.8462500     0.098250000       342.64500       1.9605529    0.0077204622
       550.99999       289.78243       99786.770       7916.3710      0.67275010       1.2377500      0.72875010       343.53900       1.9721226    0.0065985839
       556.00000       289.69871       99794.208       7860.1408       1.2405000       2.3267500    -0.086750000       341.25700       1.9304686    0.0084256115
       561.00001       289.47016       99791.465       7735.2470       1.6152500       1.9017500     -0.17200000       341.16400       1.9386493    0.0069869289
       565.99999       289.35374       99791.232       7670.2665     -0.38325000       1.3682500     -0.40150000       341.95700       1.9762542    0.0090940474
       571.00000       289.31936       99786.386       7656.7546      0.12150000       2.6312500    0.0075000000       342.25700       1.9286659    0.0082272480
       576.00001       289.28212       99779.285       7629.2609    -0.090750000       1.4975000      0.45925000       343.06900       1.9440431    0.0093834223
       580.99999       289.31463       99770.317       7627.2274     -0.13250000       1.8705000     -0.30075000       342.23000       1.9880463    0.0098851827
       586.00000       289.30322       99764.341       7610.8851     -0.13225000       2.0097500      0.28775000       342.00500       1.9705567    0.0092505543
       591.00001       289.27988       99749.298       7569.6728      0.84700010       1.9930000     -0.27400000       342.50300       1.9774509    0.0071317868
       595.99999       289.24847       99747.204       7552.5405       1.5292500       2.6565000     -0.48025000       340.69500       1.9450633    0.0088777291
       601.00000       289.20269       99757.965       7562.0763       1.4097500       1.2280000   0.00025000000       341.34800       1.9380835    0.0080380462
