MIRICO/SHELL project - Processed LDS file generated on
Thu Jul 06 05:24:54 2017
Time stamp for record start
05/10/2017  13:24:10.0000
Nb of points in the record
        1073
Beam position index
       3.0000000
Beam angle (degrees)
     -0.92900000
Open Path length (m)
       44.550000
****************** Temporal data record ************************
Elapsedtime_sec Temp_K Press_Pa Humidity_ppmv WindX_m/s WindY_m/s WindZ_m/s Speedofsound_m/s CH4vmr_ppmv CH4vmrerror_ppmv  
      0.00000000       289.12534       99791.169       7619.4382       3.1815000       1.6215000     -0.12250000       342.10000       1.9214052     0.010141399
       5.0000131       289.18384       99801.528       7647.3029       2.5805000       2.6475000      0.10850000       341.39700       1.9818000    0.0093558684
       9.9999860       289.08634       99806.288       7579.9713       1.8020000       2.9197500     -0.16900000       341.17300       1.9617764    0.0075691998
       14.999999       288.88873       99805.383       7455.7635       1.4157500       1.9057500     -0.14000000       341.31600       1.9000925     0.013690241
       20.000012       288.77587       99810.313       7373.4877      0.66750000       1.3217500     -0.16050000       341.26000       1.9164308     0.010366804
       24.999985       288.71841       99811.633       7319.1484      0.57225000       1.6702500    -0.034250000       341.49100       1.8736831     0.013322639
       29.999998       288.81537       99810.222       7328.2817    -0.062750000       1.3732500    -0.049250000       341.92200       1.8932364     0.012211128
       35.000011       288.85622       99806.447       7318.6761     -0.22125000       2.5157500      0.58150010       342.26600       1.9210109    0.0077128928
       41.000019       288.89076       99796.090       7303.9093       1.0467500       2.8445000     -0.53275000       341.28300       1.9298136     0.013167659
       45.999992       288.90940       99789.085       7295.7785      0.97975000       1.9575000     -0.41050000       341.30100       1.9266374    0.0083526640
       51.000005       288.91430       99778.811       7285.2999      0.55250000       1.8157500      0.11625000       341.84000       1.9240208     0.011655114
       56.000018       288.90299       99773.016       7277.7197      0.43625000       1.4327500      0.29975000       341.79100       1.9858773    0.0085413443
       60.999991       288.86534       99769.664       7274.4829      0.48375000       1.9695000      0.12350000       342.21100       1.9188309    0.0081869417
       66.000004       288.84516       99768.845       7274.4259       1.3112500       2.3735000     0.084500010       342.23100       1.8995948    0.0092951917
       71.000017       288.79528       99770.942       7267.9619       1.5217500       2.8615000     0.031500000       341.18700       1.8839380    0.0095468253
       75.999990       288.78817       99775.207       7276.6176       1.3342500       3.3900000    -0.056750000       340.69500       1.9508537    0.0089323776
       81.000003       288.83390       99784.707       7273.7453       1.0135000       2.7505000     -0.47950000       340.79800       1.9271417     0.011368666
       86.000016       288.85369       99791.661       7315.6734      0.44075000       1.8440000     -0.30675000       340.94600       1.9421371    0.0077920636
       90.999989       288.84647       99803.291       7377.8876     -0.33675000       1.0375000      0.25325000       341.81800       1.9093648     0.010046559
       96.000002       288.89919       99807.958       7471.9146     -0.42975000       1.8690000    -0.066750000       340.48200       1.9911258    0.0083926817
       101.00002       289.00181       99805.849       7684.1070     -0.64675000       2.7075000     -0.30200000       341.10200       1.9165106     0.011648998
       105.99999       289.06202       99805.748       7780.0067      0.62725000       2.5385000    -0.064000000       340.85900       1.9570842     0.011415234
       111.00000       289.18450       99805.453       7845.2426       1.6035000       1.9507500     -0.20650000       341.64800       1.9774576     0.010876088
       116.00001       289.23040       99800.204       7874.0979       1.1625000       1.8872500     -0.20325000       341.41900       1.9048865     0.011151953
       120.99999       289.18009       99792.771       7793.3927      0.16925000       2.3325000     -0.49800000       341.00000       1.9444779    0.0082906134
       126.00000       289.14904       99784.552       7740.1593     -0.59025000       1.7800000     0.053750000       341.47200       1.8823460     0.011678951
       132.00001       289.06832       99764.573       7664.1906     0.066250000       2.3867500     -0.27575000       340.92500       1.9359990     0.011908482
       136.99998       289.03241       99755.842       7617.6929     -0.27425000       2.1450000     -0.27125000       341.02500       1.9620178    0.0075756374
       141.99999       289.00538       99747.380       7561.1717      0.66975000       1.5230000     -0.33625000       341.34200       2.0088279    0.0087363104
       147.00001       288.98905       99748.235       7530.8453       1.5242500       2.3245000     -0.61525010       341.32500       1.8953991     0.012439481
       151.99998       288.96131       99759.438       7503.6109      0.46875000       1.4217500     0.053000000       341.71000       1.8914784    0.0097182810
       156.99999       289.00213       99768.264       7526.7150      0.52825000       1.7112500      0.43500000       342.11200       1.9561156     0.011004779
       162.00001       289.08921       99785.305       7587.8073     -0.18625000       1.6052500     -0.15800000       341.55800       1.9694397    0.0075215602
       167.00002       289.17638       99795.479       7657.1842     -0.29075000       1.1242500      0.73725000       342.09000       1.9365027    0.0072573561
       171.99999       289.33473       99804.360       7784.9948     -0.31025000       1.0967500      0.15500000       341.53500       1.9476744    0.0078729078
       177.00001       289.45017       99808.247       7886.3908     -0.56050000       2.1717500     -0.19450000       341.19500       1.9143920    0.0081479786
       182.00002       289.57780       99808.973       7994.9607     -0.98250010       3.2970000     -0.78550000       341.74900       1.9788865    0.0090031766
       186.99999       289.63646       99805.893       8078.4981     -0.27925000       3.6555000     -0.35900000       341.30800       1.9412711     0.012732472
       192.00000       289.66402       99794.701       8171.4493      0.41350000       1.5620000      0.46375000       342.21300       1.9352598     0.012365422
       197.00002       289.66308       99787.731       8211.4776     0.055000000       1.8087500      0.17200000       342.47400       1.9722397    0.0080892722
       201.99999       289.56634       99779.836       8205.5581      0.36775000       1.4155000      0.13600000       342.03200       1.9410111     0.013513130
       207.00000       289.52968       99771.782       8192.1621      0.52700000       3.1322500     -0.50000000       341.12800       1.9391298     0.011871753
       212.00002       289.51786       99760.551       8133.9452       1.7102500       1.6040000      0.41625000       341.76700       1.9054221     0.012493145
       216.99999       289.48812       99757.682       8091.6616      0.87700000       1.8567500      0.14300000       342.19500       1.9346932    0.0079913478
       223.00000       289.47079       99757.575       8036.9073       1.9922500       2.2747500     -0.24325000       340.89000       1.9327987     0.010874676
       228.00001       289.43426       99760.545       7988.1060       2.0577500       2.7612500      0.33900000       341.16100       1.9626105    0.0087791766
       232.99998       289.34769       99770.935       7917.9855      0.22600000       2.5550000     -0.13225000       341.39800       1.9410698     0.012289969
       238.00000       289.32998       99780.608       7894.8309      0.82550000       3.0935000      0.14900000       341.75400       1.9494792    0.0090808269
       243.00001       289.34283       99794.266       7901.4073       1.1827500      0.90875010      0.40325000       342.55300       1.9736797    0.0070836927
       247.99998       289.34892       99800.096       7884.8448       1.9325000       2.1615000     -0.81100000       341.72100       1.8993752     0.012751339
       253.00000       289.38785       99805.761       7879.4961     -0.39250000       1.5517500      0.14775000       342.41800       1.9092878    0.0094437029
       258.00001       289.41731       99807.761       7884.2491     -0.34400000       3.3122500     -0.80325000       341.72500       1.9679688    0.0079269419
       262.99998       289.47585       99803.976       7877.8804       1.3447500       3.2850000     -0.17125000       340.51300       1.8918887     0.011112094
       267.99999       289.44777       99797.901       7876.8097      0.49650000       2.5865000      0.93350010       342.03900       1.9883757    0.0079200915
       273.00001       289.37618       99790.145       7910.5878      0.82575010       2.6297500      0.31875000       342.13100       1.9113157    0.0092686613
       277.99998       289.32959       99780.773       7912.3348      0.70425000       2.5445000      0.38100000       342.15100       1.9712124    0.0070817566
       282.99999       289.20385       99760.060       7878.3863    -0.062250000       4.3727500     -0.43300000       340.81200       1.9530820     0.011660959
       288.00001       289.16208       99755.117       7872.4193     -0.87550000       2.0007500    -0.019750000       341.72600       1.9561364    0.0072176328
       292.99998       289.22198       99755.709       7882.3106     0.020000000       2.7755000     -0.27175000       341.18000       1.9675117    0.0071606626
       297.99999       289.18967       99761.833       7875.5322      0.40200000       2.8657500     -0.19925000       340.91400       1.9979610    0.0079169378
       303.00001       289.14950       99781.702       7883.5072     -0.72500000       2.6955000     0.013250000       342.28800       1.9355241     0.012505466
       308.00002       289.06145       99792.047       7851.5642      0.17625000       2.7442500     -0.36375000       340.46400       1.9738709     0.011580519
       313.99999       288.85888       99806.632       7773.6892     -0.74075000       1.9452500      0.10425000       341.31800       1.9030433     0.014022801
       319.00000       288.77643       99810.027       7727.8169     -0.21475000       2.0075000     -0.31100000       340.55600       1.9124891     0.012101895
       324.00001       288.69223       99807.582       7661.9779     -0.24500000       1.3312500    -0.076750000       340.54700       1.9923092    0.0074378716
       328.99999       288.65843       99802.893       7628.0513     -0.49500000       1.4202500     0.045000000       340.68400       2.0049171    0.0071493752
       334.00000       288.69984       99791.416       7616.1214     0.094250000       1.0012500      0.25325000       341.21100       1.9812459    0.0074684970
       339.00001       288.69991       99784.416       7603.3967      0.57450000       1.6470000    -0.041500000       341.35500       1.9550028    0.0082460484
       343.99998       288.69078       99776.988       7595.9729    -0.072250000      0.52400000      0.33800000       340.94400       1.9526812    0.0085547425
       349.00000       288.70928       99769.106       7598.3087      0.77000000      0.97775010      0.44150000       341.21600       1.9638147    0.0087803208
       354.00001       288.72761       99758.988       7595.3058      0.67475000       1.1195000     0.028000000       341.25600       1.9605373     0.011714666
       358.99998       288.78435       99757.562       7643.0959    -0.065750000      0.53575000      0.23350000       341.75900       1.9498020    0.0084044251
       364.00000       288.88398       99755.786       7732.9075      0.18725000       1.0647500     0.043500000       341.98200       1.9538723     0.013087918
       369.00001       288.95451       99763.214       7787.9209      0.38975000       1.0792500    -0.047500000       341.85500       1.9138051     0.013637915
       373.99998       289.05065       99784.499       7872.1495      0.39125000      0.76475010    -0.091750000       341.02400       1.9538480     0.012252712
       379.00000       289.09341       99792.776       7918.1606     -0.13550000      0.65525000     -0.57150000       340.70500       2.0035463    0.0092721757
       384.00001       289.12123       99802.801       7936.9947     -0.41900000      0.87150000      0.14600000       341.38600       1.9274784    0.0082634554
       388.99998       289.09542       99802.424       7929.6338     0.063250010      0.86725000     -0.23325000       341.42800       1.9420417     0.013068895
       394.00000       289.00768       99792.274       7906.5969      0.78700010       1.2515000     -0.33100000       341.05400       1.9359032     0.011616827
       399.00001       288.96787       99786.518       7877.5092      0.84650000       1.8122500    -0.092250000       341.58300       1.9374627    0.0078939558
       405.00002       288.87412       99775.366       7787.8135     0.050000000       1.9047500     -0.58175000       340.86800       1.9600772     0.010991233
       409.99999       288.90012       99767.248       7775.5554      0.47825000       1.7712500      0.30700000       341.82300       1.9833797     0.010467449
       415.00000       289.00680       99759.776       7800.2063      0.58750000       2.7162500    -0.047250000       341.58400       1.9662702    0.0094998385
       420.00002       289.04006       99745.965       7785.9942      0.53825000       2.6555000     -0.43900000       341.92400       1.9219238    0.0093944182
       424.99999       289.06290       99746.024       7764.3232      0.87075010       2.0280000     -0.11825000       341.43800       1.9046623     0.013861660
       430.00000       289.01428       99765.386       7690.0758      0.40375000       1.5565000    -0.088250000       340.82100       1.9699829    0.0075478408
       435.00001       288.99320       99775.282       7648.9866      0.36500000       1.0307500     -0.14025000       342.01900       1.9305807     0.011030043
       439.99999       288.99966       99795.836       7607.7281     0.017000000       1.9302500     -0.40750000       341.08700       1.9437882    0.0099728150
       445.00000       288.99940       99804.690       7604.0876     -0.23975000       2.6060000      0.15150000       341.55400       1.9652479    0.0076573137
       450.00001       288.99909       99804.934       7628.1245      0.54825000       2.6625000    -0.064250000       340.84300       1.9488071    0.0088499536
       454.99999       288.98039       99790.941       7674.1598      0.69250010       1.5637500      0.17925000       341.82800       1.9594185     0.012275750
       460.00000       289.04499       99784.670       7760.1468      0.64125000       1.8857500     0.045000000       341.92900       1.9524317    0.0073592212
       465.00001       289.13133       99771.949       7888.5608      0.65475000       1.0522500      0.20000000       341.67900       1.9638487    0.0078272994
       469.99999       289.31648       99783.882       8047.9681      0.63700000       1.8070000     -0.25950000       341.12400       1.9713631    0.0086802402
       475.00000       289.45893       99786.090       8188.1929      0.61450000       1.3715000     -0.12375000       341.30100       1.9512408     0.010923765
       480.00001       289.63069       99786.878       8384.2832      0.55300000       1.6142500     0.079750000       341.28600       1.9644330     0.015042597
       484.99998       289.72450       99790.988       8486.8766      0.59200000       1.0425000      0.16200000       341.37000       1.9640028    0.0086697170
       490.00000       289.76903       99793.861       8534.9215      0.57825010      0.74300000      0.36350000       342.76600       1.9630742    0.0095752855
       496.00001       289.76415       99789.085       8537.7509       1.5965000      0.86075000     -0.16250000       341.32800       1.9335431     0.012342025
       501.00002       289.71029       99801.127       8431.2488       1.3432500       1.1490000     0.090000000       341.50700       1.9411799     0.010093449
       505.99999       289.69157       99802.658       8358.2544     -0.39975000      0.55750000      0.00000000       341.81300       1.9832285    0.0075534919
       511.00000       289.71425       99794.724       8275.3685      0.16900000       1.1157500     0.093000000       342.53700       1.9202464    0.0076684904
       516.00002       289.70313       99789.536       8201.2797      0.18950000      0.75700000    -0.021750000       341.35800       1.9013259     0.014654643
       520.99999       289.63711       99781.456       8120.4171     -0.59275000      0.59825000      0.32325000       342.65100       1.9883660    0.0072283604
       526.00000       289.63969       99773.494       8061.7512    -0.099500010       1.4527500      0.10475000       341.65400       1.9451320     0.010954916
       531.00002       289.66365       99760.317       8010.5415     -0.42050000       1.8800000      0.18500000       341.88400       1.9789349    0.0089838892
       535.99999       289.69566       99757.848       7978.1912     -0.57050000       2.4865000     -0.61150000       341.97100       1.9756344    0.0079382896
       541.00000       289.87264       99759.341       8008.2758      0.16500000       1.8375000     -0.58025000       341.98900       1.9315976     0.012678578
       546.00002       289.88478       99763.897       7975.1575      0.18150000       1.8325000     0.023750000       342.66100       1.9953025    0.0080559831
       550.99999       289.78243       99786.770       7916.3710      0.33875000       1.2842500      0.73425000       343.35500       1.9101769     0.010669329
       556.00000       289.69871       99794.208       7860.1408      0.67825000       1.8697500     -0.10100000       342.18700       1.9219450    0.0096937238
       561.00001       289.47016       99791.465       7735.2470       1.5487500       1.9512500     -0.10900000       341.30400       1.9372772     0.012994902
       565.99999       289.35374       99791.232       7670.2665     -0.29000000       1.3995000     -0.59100000       340.91200       1.9652364    0.0068125645
       571.00000       289.31936       99786.386       7656.7546      0.19050000       2.2512500     -0.46975000       341.22300       2.0109373    0.0084026291
       576.00001       289.28212       99779.285       7629.2609      0.20450000       2.1292500      0.11050000       342.61300       1.9124265     0.010450637
       580.99999       289.31463       99770.317       7627.2274     -0.40000000       1.5705000      0.59300010       343.19200       1.9687996    0.0094792851
       586.99999       289.29942       99763.135       7606.8542      0.21500000       1.6007500      0.51650000       342.68200       1.9783295     0.010784294
       592.00001       289.27459       99748.275       7565.4639      0.45725000       1.6670000     -0.13425000       342.85300       1.9720817    0.0079111919
       596.99998       289.24069       99747.690       7550.2851       1.4570000       2.4412500     -0.40825000       340.62700       1.9005219     0.014469605
       601.99999       289.19137       99759.438       7559.4686       1.7220000       1.5942500     -0.23600000       341.35000       1.9171236    0.0081739055
