MIRICO/SHELL project - Processed LDS file generated on
Thu Jul 06 23:42:39 2017
Time stamp for record start
05/10/2017  13:24:10.0000
Nb of points in the record
        1073
Beam position index
       4.0000000
Beam angle (degrees)
    -0.021000000
Open Path length (m)
       98.010000
****************** Temporal data record ************************
Elapsedtime_sec Temp_K Press_Pa Humidity_ppmv WindX_m/s WindY_m/s WindZ_m/s Speedofsound_m/s CH4vmr_ppmv CH4vmrerror_ppmv  
      0.00000000       289.12534       99791.169       7619.4382       2.7932500       1.7380000      0.29875000       341.62500       1.9295289    0.0062966302
       6.0000077       289.16943       99802.680       7636.6754       2.1337500       2.9362500     -0.26475000       340.92100       1.9515749    0.0072088040
       10.999981       288.96095       99803.742       7511.2938      0.95600000       2.1887500     -0.21050000       341.40800       1.9124471    0.0066752981
       15.999994       288.87319       99805.795       7442.9131       1.0317500       1.8387500     -0.46225000       341.14000       1.9546964    0.0084978645
       21.000007       288.75933       99810.778       7360.3410      0.73925010       1.8882500     -0.15125000       341.17000       1.9306937    0.0069568145
       25.999980       288.71449       99811.596       7311.6754      0.48800000       1.9250000     -0.55150000       341.53900       1.9376210    0.0077722695
       30.999993       288.82452       99809.664       7326.4633     -0.72625010       2.1385000   0.00075000000       341.34600       1.9414863    0.0076577171
       36.000006       288.86292       99805.397       7316.6034    -0.065000010       2.7702500      0.41075000       342.00500       1.9155003    0.0086123338
       41.000019       288.89076       99796.090       7303.9093     -0.16525000       2.5860000     -0.22275000       341.46900       1.9497460    0.0074899385
       45.999992       288.90940       99789.085       7295.7785      0.79350010       2.5020000     -0.53950000       341.21000       1.9379956    0.0070527839
       51.000005       288.91430       99778.811       7285.2999     0.072250000       1.6667500      0.24675000       342.07800       1.9110846    0.0088304793
       56.000018       288.90299       99773.016       7277.7197      0.88300000       1.1770000      0.17825000       341.39500       1.9405972    0.0074433477
       60.999991       288.86534       99769.664       7274.4829      0.35125000       2.2805000      0.30650000       342.13700       1.9394682    0.0076065265
       66.000004       288.84516       99768.845       7274.4259      0.62625000       2.8232500      0.27250000       342.15300       1.9154360    0.0064351281
       71.000017       288.79528       99770.942       7267.9619      0.99325010       3.0302500     -0.89675000       341.02700       1.9092677    0.0081995505
       75.999990       288.78817       99775.207       7276.6176       1.1235000       3.4317500     -0.16125000       340.53700       1.9212466    0.0068383056
       81.000003       288.83390       99784.707       7273.7453      0.70475010       2.3345000     -0.91650000       340.78000       1.9780111    0.0074533195
       86.000016       288.85369       99791.661       7315.6734      0.36525000       2.3010000    -0.079000000       341.46400       1.9682576    0.0085058841
       90.999989       288.84647       99803.291       7377.8876     0.066000000       1.4487500      0.37500000       342.47500       1.9151353    0.0068253570
       96.999997       288.91280       99808.443       7494.6181     -0.48300000       1.9930000    -0.060500000       340.51100       1.9511056    0.0075002357
       102.00001       289.01384       99805.925       7706.7185     -0.28750000       2.3790000     -0.16050000       340.94000       1.9363883    0.0061045206
       106.99998       289.07407       99805.582       7794.0183       1.0630000       2.0565000      0.40450000       340.79600       1.9731911    0.0089980365
       112.00000       289.19773       99804.603       7855.0808       1.0782500       2.4082500      0.16050000       341.70300       1.9685179    0.0066803302
       117.00001       289.23350       99798.855       7873.7515      0.84300010       1.8497500     0.039500000       341.06400       1.9627617    0.0071758833
       121.99998       289.17486       99791.322       7783.0270      0.37050000       2.8080000      0.17600000       341.35800       1.9252330    0.0064112129
       127.00000       289.14135       99782.616       7729.0956     -0.89375010       2.2575000     0.058250000       341.64100       1.9668593    0.0067541016
       132.00001       289.06832       99764.573       7664.1906    -0.053000000       2.2565000     -0.13200000       340.95800       1.9606998    0.0065636113
       136.99998       289.03241       99755.842       7617.6929     0.045250000       1.6122500     -0.11350000       341.28700       1.9305652    0.0070764581
       141.99999       289.00538       99747.380       7561.1717      0.45750000       1.8705000    -0.083250000       341.44200       1.9547537    0.0077365916
       147.00001       288.98905       99748.235       7530.8453       1.3027500       1.5432500      0.12775000       341.52500       1.9636604    0.0067732057
       151.99998       288.96131       99759.438       7503.6109      0.49000000       1.4585000    0.0067500000       341.82800       1.9245974    0.0073525184
       156.99999       289.00213       99768.264       7526.7150     -0.52825000       1.3562500     0.059750000       342.33200       1.9336395    0.0063331562
       162.00001       289.08921       99785.305       7587.8073    0.0015000000       1.5827500     -0.35575000       341.60900       1.9653344    0.0059955839
       167.00002       289.17638       99795.479       7657.1842     -0.16950000       1.2305000     0.095500010       342.56200       1.9515465    0.0081856490
       171.99999       289.33473       99804.360       7784.9948    -0.040500000       1.1940000      0.21025000       341.45900       1.9668979    0.0081380276
       177.00001       289.45017       99808.247       7886.3908     -0.32525000       2.6017500    -0.028750000       341.30400       1.9644906    0.0082214323
       183.00001       289.59251       99808.663       8012.7112     -0.82475010       3.1932500     -0.99800000       341.47500       1.9541506    0.0087189069
       187.99999       289.64373       99804.819       8093.6211     -0.29850000       2.8595000      0.48300000       342.01000       1.9229489    0.0087289070
       193.00000       289.66684       99793.305       8182.1811      0.37175000       1.7140000      0.16500000       342.20400       1.9556351    0.0064240523
       198.00001       289.65838       99786.340       8215.3833      0.52025000       2.0155000     0.045250000       342.45300       1.9392027    0.0080241655
       202.99999       289.55797       99778.219       8204.6342       1.2890000       2.0595000     -0.44775000       342.08300       1.9685895    0.0069846979
       208.00000       289.52391       99770.181       8186.8563    -0.055250000       3.2105000     -0.22875000       341.48200       1.9649787    0.0062066128
       213.00001       289.51191       99759.683       8125.6889       1.4337500       1.6700000      0.17500000       341.60000       1.9351687    0.0069683294
       217.99998       289.48217       99757.550       8082.9050       1.1602500      0.92225000     -0.32925000       341.72100       1.9715259    0.0063242740
       223.00000       289.47079       99757.575       8036.9073       2.1372500       2.1162500     -0.23400000       340.87600       1.9583477    0.0082352737
       228.00001       289.43426       99760.545       7988.1060       2.6690000       2.7697500     -0.18050000       341.09600       1.9351686    0.0079796733
       232.99998       289.34769       99770.935       7917.9855      0.18475000       2.7577500      0.18875000       341.39600       1.9440299    0.0069984875
       238.00000       289.32998       99780.608       7894.8309      0.88225010       3.0655000      0.35125000       341.80700       1.9691945    0.0075861507
       243.00001       289.34283       99794.266       7901.4073       1.0852500      0.82250010      0.14175000       342.14700       1.9485134    0.0076658255
       247.99998       289.34892       99800.096       7884.8448      0.98900000       2.1730000     -0.29100000       341.82900       1.9464263    0.0057809013
       253.00000       289.38785       99805.761       7879.4961     -0.75225000       1.6535000      0.37775000       342.36800       1.9359767    0.0065731111
       258.00001       289.41731       99807.761       7884.2491      0.94950000       3.8062500     -0.44900000       341.81500       1.9757121    0.0078585563
       262.99998       289.47585       99803.976       7877.8804       1.0027500       3.4380000     -0.31625000       340.74500       1.9665913    0.0074745874
       267.99999       289.44777       99797.901       7876.8097      0.42575000       3.1850000      0.15975000       341.60400       1.9709413    0.0070915424
       274.00000       289.36794       99788.482       7912.0157       2.2777500       2.9987500      0.42125000       341.79700       1.9554865    0.0078168557
       279.00002       289.31866       99778.582       7911.0685      0.81375000       2.0245000      0.89125000       342.54900       1.9882002    0.0081821061
       283.99999       289.19250       99758.573       7876.6427     -0.68825000       3.6370000     -0.72225000       341.31600       1.9427378    0.0075184272
       289.00000       289.15822       99754.876       7872.0537     -0.46775000       2.1287500      0.83875010       341.96300       1.9519349    0.0075899136
       294.00001       289.21753       99756.432       7881.2703    -0.089500000       2.7617500     -0.30600000       341.46700       1.9953823    0.0095084719
       298.99999       289.18020       99763.809       7873.7019       1.0210000       2.9920000    -0.034750000       341.03000       1.9543846    0.0063391309
       304.00000       289.13485       99783.869       7878.7856     -0.51425000       1.8912500      0.12850000       341.47100       1.9797996    0.0081672290
       309.00001       289.03941       99793.970       7842.6850      0.42175000       2.6270000     -0.28250000       341.09900       1.9560465    0.0066791393
       313.99999       288.85888       99806.632       7773.6892    -0.092750010       1.7410000     -0.48475000       340.99700       1.9752711    0.0082260472
       319.00000       288.77643       99810.027       7727.8169     -0.19500000       1.6457500     -0.68100010       340.51600       1.9472609    0.0064341779
       324.00001       288.69223       99807.582       7661.9779     -0.36875000       1.5540000     0.050500000       340.81300       1.9456496    0.0073520921
       328.99999       288.65843       99802.893       7628.0513     -0.40275000       1.3617500      0.11150000       340.58900       1.9339024    0.0074041481
       334.00000       288.69984       99791.416       7616.1214      0.17250000      0.75875000      0.17050000       341.38000       1.9327280    0.0076064020
       339.00001       288.69991       99784.416       7603.3967      0.24775000       1.4157500    -0.012000000       341.47600       1.9483723    0.0066771318
       343.99998       288.69078       99776.988       7595.9729      0.11575000      0.57675000      0.21750000       341.99200       1.9727818    0.0080727697
       349.00000       288.70928       99769.106       7598.3087      0.62300000       1.2402500      0.34325000       341.16800       1.9524269    0.0063002715
       354.00001       288.72761       99758.988       7595.3058      0.82500000       1.0967500      0.19050000       341.27600       1.9717788    0.0078528651
       358.99998       288.78435       99757.562       7643.0959    -0.042500000      0.86775000      0.12850000       341.84200       1.9909032    0.0079082810
       364.99999       288.89803       99756.762       7743.8649      0.16750000       1.1482500    -0.031750000       341.49800       1.9723715    0.0084030097
       370.00000       288.96870       99765.463       7798.9913      0.30000000       1.0697500     0.039750000       341.96200       1.9719841    0.0069613698
       375.00002       289.06121       99786.356       7882.8936      0.31325000      0.89475010    -0.066500000       340.76000       1.9840461    0.0084498207
       379.99999       289.11462       99798.542       7927.4891    -0.022750000      0.96925000    -0.052250000       340.98800       1.9478744    0.0071557090
       385.00000       289.11910       99803.233       7937.2332      0.32000000       1.5990000    -0.066000000       341.73400       1.9559479    0.0059729660
       390.00002       289.03953       99795.978       7918.6065    -0.064500000      0.93100010    -0.010750000       341.50300       1.9514545    0.0074076210
       394.99999       288.99972       99791.223       7902.0273      0.65750000       1.1090000     -0.36375000       341.15500       1.9736953    0.0089425342
       400.00000       288.95990       99785.217       7869.8245      0.80975000       1.6547500     -0.35975000       341.04100       1.9437175    0.0058828968
       405.00002       288.87412       99775.366       7787.8135      0.89025000       1.7652500      0.17250000       340.90000       1.9594404    0.0073199311
       409.99999       288.90012       99767.248       7775.5554      0.21450000       1.6092500      0.30825000       341.66800       1.9563903    0.0073947929
       415.00000       289.00680       99759.776       7800.2063       1.5217500       1.9840000     0.086500000       341.72900       1.9404607    0.0070461022
       420.00002       289.04006       99745.965       7785.9942      0.68275000       2.3210000     -0.20900000       341.60800       1.9418974    0.0073896962
       424.99999       289.06290       99746.024       7764.3232      0.73250000       2.6025000      0.20200000       340.96000       1.9067813    0.0072863796
       430.00000       289.01428       99765.386       7690.0758      0.46600000       1.3675000     0.062000000       340.77500       1.9977926    0.0070111267
       435.00001       288.99320       99775.282       7648.9866      0.36050000      0.77300010    -0.029750000       341.90700       1.9447729    0.0069635695
       439.99999       288.99966       99795.836       7607.7281      0.47125000       1.6840000     -0.33600000       341.12800       1.9209092     0.011356031
       445.00000       288.99940       99804.690       7604.0876      0.28000000       1.9362500      0.24250000       341.69500       1.9378918    0.0062591545
       450.00001       288.99909       99804.934       7628.1245      0.72500000       2.8010000     -0.19575000       340.78600       1.9580203    0.0084734946
       455.99998       288.99026       99789.793       7688.6351      0.82575010      0.81000010      0.66650000       342.05900       1.9655807    0.0067216595
       460.99999       289.05910       99774.464       7798.3785       1.1467500       1.6165000    -0.027000000       341.46700       1.9845640    0.0062981796
       466.00001       289.15315       99771.944       7913.0750      0.85075000      0.80450000      0.43725000       342.07600       1.9599569    0.0073831099
       470.99998       289.34608       99784.433       8076.2990      0.62350000       1.8032500     -0.33475000       340.77300       1.9656913    0.0071634523
       475.99999       289.48575       99786.368       8215.7971      0.83850000      0.82625000     0.012000000       342.00600       1.9561112    0.0073172360
       481.00001       289.65340       99787.799       8409.1078      0.52225000       1.2770000    -0.054250000       341.27800       1.9675777    0.0077445863
       486.00002       289.73735       99791.661       8500.8825    -0.046250000       1.6310000      0.32125000       341.35500       1.9199852    0.0066669240
       490.99999       289.74725       99788.820       8536.4659      0.73875000      0.83400010      0.51050000       342.71100       1.9336020    0.0070363791
       496.00001       289.76415       99789.085       8537.7509       1.4925000      0.80075000    -0.016000000       342.17900       1.9412825    0.0073274763
       501.00002       289.71029       99801.127       8431.2488      0.58350000       1.0622500    -0.081250000       341.47800       1.9910852    0.0075609984
       505.99999       289.69157       99802.658       8358.2544     -0.33275000      0.86375000     0.058000000       341.60900       1.9552278    0.0072668633
       511.00000       289.71425       99794.724       8275.3685      0.14200000       1.2610000     -0.22025000       341.58700       1.9530086    0.0090091300
       516.00002       289.70313       99789.536       8201.2797      0.32850000      0.48100000      0.13900000       341.39800       1.9812276    0.0077475347
       520.99999       289.63711       99781.456       8120.4171     -0.17050000      0.38275000      0.38675000       342.76200       1.9569407    0.0074197795
       526.00000       289.63969       99773.494       8061.7512    0.0067500000       1.7235000      0.16400000       341.97900       1.9457374    0.0069605343
       531.00002       289.66365       99760.317       8010.5415      -1.0170000       1.4507500      0.68200000       342.37600       1.9775614    0.0080790502
       535.99999       289.69566       99757.848       7978.1912     -0.91550000       2.7822500     -0.31425000       341.78600       1.9471046    0.0067480667
       541.00000       289.87264       99759.341       8008.2758     -0.16775000       2.1552500     -0.26925000       342.22600       1.9438485    0.0077158639
       547.00001       289.87812       99765.427       7965.8763      0.46125000       1.5712500      0.24750000       343.12600       1.9468926    0.0075122090
       551.99998       289.76869       99788.756       7906.3852      0.80900000       1.9940000      0.18625000       341.67200       1.9383135    0.0072108943
       557.00000       289.67746       99794.947       7847.0177      0.93350010       2.2480000    -0.084500010       342.33400       1.9620874    0.0074555965
       562.00001       289.44276       99791.618       7719.9594       1.2090000       1.6250000      0.47300000       342.17200       1.9747532    0.0078057055
       566.99998       289.33662       99790.887       7660.6832    -0.043500000       1.4427500     -0.55975000       340.88200       1.9481623    0.0074780797
       572.00000       289.30995       99785.065       7650.6441      0.12975000       2.1797500    -0.049750000       341.12300       1.9507635    0.0076767384
       577.00001       289.27761       99777.717       7624.6764      0.38825000       2.3805000     -0.30200000       341.43000       1.9584819    0.0064310193
       581.99998       289.31336       99769.129       7624.4684     -0.29375000       1.4950000      0.18525000       342.96100       1.9356274    0.0076620938
       586.99999       289.29942       99763.135       7606.8542     -0.16325000       2.8097500     0.022000000       342.76600       1.9073110    0.0076921394
       592.00001       289.27459       99748.275       7565.4639      0.81675000       1.9420000     -0.35525000       343.04200       1.9205144    0.0066048648
       596.99998       289.24069       99747.690       7550.2851       1.1280000       2.5370000     -0.47300000       340.69700       1.9599259    0.0088329404
       601.99999       289.19137       99759.438       7559.4686       2.5642500       1.7290000      0.21250000       341.62800       1.9435365    0.0072094268
