MIRICO/SHELL project - Processed LDS file generated on
Thu Jul 06 22:04:34 2017
Time stamp for record start
05/10/2017  13:24:11.0000
Nb of points in the record
        1073
Beam position index
       5.0000000
Beam angle (degrees)
       8.5430000
Open Path length (m)
       83.010000
****************** Temporal data record ************************
Elapsedtime_sec Temp_K Press_Pa Humidity_ppmv WindX_m/s WindY_m/s WindZ_m/s Speedofsound_m/s CH4vmr_ppmv CH4vmrerror_ppmv  
      0.00000000       289.21597       99795.919       7675.4581       2.6440000       2.9512500     -0.59925000       341.80700       1.9873281    0.0097390561
       5.0000131       289.16943       99802.680       7636.6754       1.8312500       3.2477500     -0.23600000       340.66400       1.9829818     0.014039128
       9.9999860       288.96095       99803.742       7511.2938     0.089000000       2.4837500     -0.57025000       341.06600       1.9968771    0.0081344156
       14.999999       288.87319       99805.795       7442.9131      0.98925010       1.7582500    -0.038250000       341.27900       1.9697699     0.018606815
       20.000012       288.75933       99810.778       7360.3410      0.64775000       1.8672500     0.023000000       341.17200       1.9646764    0.0098497048
       24.999985       288.71449       99811.596       7311.6754     0.047000000       1.9377500      0.74575000       341.54500       1.9703632     0.015333992
       29.999998       288.82452       99809.664       7326.4633      -1.3652500       1.5070000     -0.29625000       341.50800       1.9729819     0.011040463
       35.000011       288.86292       99805.397       7316.6034     -0.12325000       2.4927500      0.26475000       341.88900       1.9474771     0.013348843
       40.000024       288.89076       99796.090       7303.9093      0.67875000       2.4275000     -0.29375000       341.55800       1.9710058     0.016592049
       44.999997       288.90940       99789.085       7295.7785       1.0622500       2.3415000     -0.51450000       341.42600       1.9518463     0.018294188
       50.000010       288.91430       99778.811       7285.2999      0.42325000       1.6842500      0.32700000       342.44500       1.9852421     0.013168575
       56.000018       288.89923       99772.159       7276.5753      0.40050000       1.0040000      0.37800000       341.55400       1.9627671     0.014903263
       60.999991       288.86128       99769.298       7274.3017       1.8437500       1.5610000      0.33950000       341.93500       1.9469041     0.013080737
       66.000004       288.84116       99768.984       7274.6687       1.9020000       2.9745000     -0.12350000       340.97700       1.9665306     0.012268808
       71.000017       288.79189       99771.598       7268.9615      0.78300010       4.1425000     -0.32350000       341.38400       1.9540677     0.012556965
       75.999990       288.78970       99776.357       7279.4480       1.1750000       3.2620000     0.085500000       340.66200       1.9712929     0.015757940
       81.000003       288.83786       99786.099       7279.9830      0.95375010       2.2965000      0.11450000       340.88300       1.9772790     0.012582887
       86.000016       288.85765       99793.050       7327.2848      0.45300000       2.2657500     -0.51800000       341.19000       1.9531865     0.017206249
       90.999989       288.85497       99804.523       7394.1126      0.53700000       1.7872500      0.12150000       341.67700       1.9982274     0.013376669
       96.000002       288.91280       99808.443       7494.6181     -0.35975000       2.1227500     -0.13725000       340.48300       1.9765240     0.018713542
       101.00002       289.01384       99805.925       7706.7185      0.15975000       2.2040000      0.15550000       341.13800       1.9444319     0.013839527
       105.99999       289.07407       99805.582       7794.0183       1.2140000       2.3700000     0.057250000       341.01000       1.9286528     0.020012640
       111.00000       289.19773       99804.603       7855.0808      0.99275000       2.3587500     -0.11800000       341.29200       1.9598912     0.013909304
       116.00001       289.23350       99798.855       7873.7515      0.89075010       1.7602500     -0.28075000       341.08500       1.9528271     0.015813549
       120.99999       289.17486       99791.322       7783.0270     0.029250000       2.2160000     -0.45000000       340.97300       1.9607533     0.014054399
       126.00000       289.14135       99782.616       7729.0956     -0.50175010       1.8315000    -0.037750000       340.63200       1.9596382     0.022152335
       131.00001       289.06832       99764.573       7664.1906      0.30000000       2.1460000     -0.18775000       341.01500       1.9677451     0.013421797
       135.99999       289.03241       99755.842       7617.6929      0.11675000       1.3972500     0.026000000       340.98100       1.9682871     0.013387332
       141.00000       289.00538       99747.380       7561.1717      0.39725000       1.9667500      0.18200000       341.64500       1.9749418     0.015348652
       147.00001       288.98730       99749.159       7526.8375      0.72825000       2.0537500     -0.49375000       341.52700       1.9591861     0.013468856
       152.00002       288.96645       99761.009       7505.6745      0.29425000       1.4645000     -0.11400000       341.77700       1.9573850     0.022157926
       156.99999       289.01481       99770.321       7535.1832     -0.33325000       1.5275000      0.27775000       342.63000       1.9488845     0.020473682
       162.00001       289.10467       99787.538       7599.7540      0.10250000       2.0117500      0.35050000       341.58400       1.9306787     0.021185137
       167.00002       289.19677       99797.217       7673.9733      0.19925000       1.8317500      0.21275000       342.41400       1.9461849     0.017928949
       171.99999       289.35880       99805.430       7805.4772      0.43825000       2.0632500      0.13075000       341.45200       1.9626305     0.019388089
       177.00001       289.47178       99808.584       7906.3587     -0.23200000       2.5295000     0.071500000       341.32600       1.9721701     0.012773768
       182.00002       289.59251       99808.663       8012.7112     -0.46325000       2.5927500    -0.049750000       341.55200       1.9769796     0.010844812
       186.99999       289.64373       99804.819       8093.6211     -0.27750000       3.3805000     0.032750000       341.33100       1.9780752     0.011401569
       192.00000       289.66684       99793.305       8182.1811      0.48950000       1.6540000      0.31975000       342.36700       1.9574233     0.019077598
       197.00002       289.65838       99786.340       8215.3833      0.39425000       1.8127500      0.18175000       342.37400       1.9734229     0.012734515
       201.99999       289.55797       99778.219       8204.6342      0.89325000       1.9012500     -0.29025000       342.29500       1.9448983     0.019313419
       207.00000       289.52391       99770.181       8186.8563       1.0342500       2.5720000     -0.76250000       341.64300       1.9694302     0.017444243
       212.00002       289.51191       99759.683       8125.6889       1.0210000       1.6205000     0.080500010       341.64700       1.9602739     0.018140290
       216.99999       289.48217       99757.550       8082.9050       1.3930000       1.4990000     -0.74225000       341.63000       1.9813295     0.012271899
       222.00000       289.47079       99757.575       8036.9073       2.3170000       2.3227500     -0.60675000       341.10400       1.9692851     0.017445570
       227.00002       289.43426       99760.545       7988.1060       2.6685000       2.8192500      0.31825000       341.13200       1.9895348     0.012850058
       231.99999       289.34769       99770.935       7917.9855      0.78400000       2.7540000     0.093250010       341.28800       1.9528524     0.016435765
       238.00000       289.32943       99782.693       7892.5580       1.2652500       2.6825000     -0.36325000       341.78500       1.9423487     0.018397373
       243.00001       289.34306       99795.641       7897.9510      0.57475000       1.2097500    0.0030000000       342.37200       1.9747893     0.018303022
       248.00002       289.35162       99800.949       7881.7459      0.47975000       2.3997500     -0.28800000       341.96000       1.9625344     0.016501494
       253.00000       289.39375       99806.456       7880.2414     0.058000000       2.3602500      0.31300000       342.37500       1.9752603     0.012726591
       258.00001       289.42320       99807.717       7885.5081     -0.12650000       3.7975000     -0.27075000       341.59900       2.0099321    0.0092416176
       263.00002       289.47319       99802.956       7877.1000      0.47550000       2.9997500      0.27600000       341.38000       1.9486677     0.017226995
       267.99999       289.43772       99796.392       7877.4385      0.64500000       2.3915000      0.51800000       341.96800       1.9796604     0.011599914
       273.00001       289.36794       99788.482       7912.0157       2.2822500       3.2287500      0.21500000       342.36900       1.9632495     0.020492073
       278.00002       289.31866       99778.582       7911.0685      0.91325000       3.0137500      0.72825000       342.12100       1.9661660     0.018383728
       282.99999       289.19250       99758.573       7876.6427     -0.15900000       3.6267500     -0.48950000       341.69500       1.9471068     0.015344082
       288.00001       289.15822       99754.876       7872.0537      0.50650000       3.1152500     -0.10500000       341.44400       1.9808916     0.012730548
       293.00002       289.21753       99756.432       7881.2703      0.59700000       2.7682500     0.031000000       341.68000       1.9651732     0.011021137
       297.99999       289.18020       99763.809       7873.7019      0.92150000       2.9955000     -0.69025000       340.71200       1.9913939     0.010742524
       303.00001       289.13485       99783.869       7878.7856     -0.45975000       1.8370000     0.040500000       341.96900       2.0043778    0.0092312632
       308.00002       289.03941       99793.970       7842.6850     -0.32275000       2.7767500     -0.13875000       341.19900       1.9807826     0.011168090
       312.99999       288.85888       99806.632       7773.6892     -0.34975000       1.4362500     0.036750000       341.32500       1.9810549     0.014092964
       318.00001       288.77643       99810.027       7727.8169     -0.10325000       1.6957500     -0.76075010       340.63300       1.9736018     0.013276344
       324.00001       288.68246       99806.945       7654.0333     -0.66550000       1.4590000     0.095500010       340.84500       1.9543161     0.018322022
       328.99999       288.69983       99797.066       7631.3304     -0.27450000       1.2527500    -0.055000000       341.19600       1.9586681     0.013384057
       334.00000       288.69985       99790.010       7613.0176     -0.28850000       1.3392500     -0.37200000       341.04800       1.9323025     0.018842974
       339.00001       288.68483       99783.293       7600.0326      0.22150000       1.1202500      0.33125000       341.70900       1.9666994     0.011665093
       343.99998       288.69349       99775.412       7595.7812      0.15500000       1.1667500      0.17700000       341.00000       1.9492880     0.017375837
       349.00000       288.69991       99762.778       7576.8366       1.4460000       1.6610000     -0.34650000       341.48400       1.9726931     0.010845410
       354.00001       288.73699       99758.408       7602.6598      0.83950010       1.0352500      0.10650000       341.46600       1.9837707     0.011466487
       359.00002       288.79865       99757.718       7655.9766     0.012000000      0.74000000      0.13050000       341.76900       1.9782060     0.016615670
       364.00000       288.89803       99756.762       7743.8649      0.12625000      0.85275010     0.061750000       342.48300       2.0035692    0.0076116229
       369.00001       288.96870       99765.463       7798.9913      0.34325000       1.1102500    -0.052500000       341.17600       1.9879570     0.011924958
       374.00002       289.06121       99786.356       7882.8936      0.57300000      0.68275000     0.034250000       341.29300       1.9935966     0.013390488
       379.00000       289.11462       99798.542       7927.4891      0.23975000       1.2702500      0.22150000       340.84600       2.0083183     0.010806630
       384.00001       289.11910       99803.233       7937.2332    -0.014250000       1.1875000     -0.36175000       341.39000       1.9583749     0.012085762
       389.00002       289.03953       99795.978       7918.6065     -0.14950000      0.82400010      0.43900000       341.81400       1.9602278     0.010473779
       394.00000       288.99972       99791.223       7902.0273      0.64650010       1.0632500    -0.068750000       341.31900       1.9947563     0.010999645
       399.00001       288.95990       99785.217       7869.8245      0.89325000       1.5952500     -0.38975000       340.92000       2.0061843     0.010232102
       404.00002       288.87412       99775.366       7787.8135      0.68075000       1.9027500     -0.52550000       340.84900       1.9723132     0.012123875
       408.99999       288.90012       99767.248       7775.5554      0.32550000       1.4175000      0.19250000       341.98900       1.9480370     0.016136750
       415.00000       289.01160       99758.709       7796.5608       1.9195000       1.7185000     -0.10450000       342.41600       1.9837934     0.010709769
       420.00002       289.04664       99745.273       7782.8905      0.47650000       2.6750000     -0.29425000       341.04900       1.9726031     0.014892415
       424.99999       289.06446       99747.093       7758.1479      0.86700000       1.9917500    -0.081250000       340.60100       1.9879372     0.012716652
       430.00000       289.00908       99767.365       7680.6409    -0.025000000       1.2025000      0.21200000       341.29500       1.9629698     0.013446745
       435.00001       288.99046       99777.262       7642.5893      0.13900000      0.84050010     0.053500000       341.75700       2.0061803     0.018981979
       439.99999       288.99961       99798.295       7604.7856      0.34250000       2.2570000     -0.40800000       340.80000       1.9641391     0.015342111
       445.00000       288.99934       99805.428       7606.6808      0.72650000       1.4885000      0.19550000       342.06900       2.0061937     0.016302762
       450.00001       288.95616       99794.996       7629.7077      0.70350000       2.4915000     -0.20325000       340.74500       1.9524375     0.017097865
       454.99999       288.99026       99789.793       7688.6351      0.23975000       1.3377500      0.44450000       341.46200       1.9955099     0.010447990
       460.00000       289.05910       99774.464       7798.3785       1.1655000       1.5195000     -0.33275000       341.29900       2.0030498     0.014869073
       465.00001       289.15315       99771.944       7913.0750      0.71675000       1.4412500      0.25375000       341.79500       2.0386402    0.0085015365
       469.99999       289.34608       99784.433       8076.2990      0.73200010       1.7865000     -0.42200000       340.77500       2.0085673     0.011588328
       475.00000       289.48575       99786.368       8215.7971      0.83150010      0.62100010     -0.27325000       341.49600       1.9873494     0.011649791
       480.00001       289.65340       99787.799       8409.1078      0.21025000       1.0022500     -0.23275000       341.38700       1.9965892    0.0075301134
       485.00002       289.73735       99791.661       8500.8825      0.14800000       1.9717500      0.58625000       341.50500       1.9570906     0.015650892
       490.00000       289.74725       99788.820       8536.4659      0.42775000      0.56625000      0.57725000       343.05100       1.9634126     0.013741365
       495.00001       289.76415       99789.085       8537.7509       1.2995000      0.81300000      0.21300000       341.89100       1.9818823     0.012687587
       500.00002       289.71029       99801.127       8431.2488      0.57725000      0.99475000     0.067250010       341.47800       1.9817106     0.012310269
       505.99999       289.68934       99802.364       8343.3815     0.048750000      0.77625010      0.20825000       342.14300       1.9852382    0.0094129033
       511.00000       289.71304       99793.783       8260.2437     0.055750000       1.0880000     0.080000010       342.52700       1.9567381     0.016815545
       516.00002       289.69939       99788.353       8186.9287      0.37825000      0.63950000      0.38550000       341.53500       1.9807743     0.011191403
       520.99999       289.63566       99779.862       8107.6628     -0.10950000      0.49575000      0.42675000       342.71800       1.9806990     0.012026997
       526.00000       289.64315       99771.904       8051.5389     0.029000000       1.6347500      0.11000000       342.40800       1.9844396     0.019634949
       531.00002       289.66809       99759.430       8002.7328     -0.94550000       2.1415000     -0.34000000       341.79200       1.9600803     0.012579088
       535.99999       289.70500       99757.944       7973.7242     -0.60700010       2.7242500     -0.29450000       341.68900       1.9541961     0.011498572
       541.00000       289.88112       99759.840       8003.4382    -0.035500000       2.3152500     -0.31700000       342.21200       1.9873800     0.017022648
       546.00002       289.87812       99765.427       7965.8763      0.30875000       1.6902500      0.27700000       343.09700       1.9894698    0.0095577805
       550.99999       289.76869       99788.756       7906.3852       1.5750000       2.0477500     -0.16025000       341.06600       2.0009713     0.020749237
       556.00000       289.67746       99794.947       7847.0177       1.0357500       2.3087500     -0.22175000       341.65300       1.9642783     0.017328771
       561.00001       289.44276       99791.618       7719.9594       1.7837500       1.6267500      0.44525000       341.18100       1.9894455     0.018080343
       565.99999       289.33662       99790.887       7660.6832     -0.32800000       1.5327500     0.051500000       340.90200       1.9740930     0.012443655
       571.00000       289.30995       99785.065       7650.6441      0.21000000       1.7022500     -0.36625000       341.11500       1.9514335     0.017633157
       576.00001       289.27761       99777.717       7624.6764      0.36300000       2.2665000     -0.54275000       341.34600       1.9333397     0.017216478
       580.99999       289.31336       99769.129       7624.4684     -0.13600000       1.9315000     -0.14475000       342.55400       1.9654338     0.013875880
       586.00000       289.29942       99763.135       7606.8542     -0.79475000       1.3960000      0.62000000       342.99600       2.0098914     0.010282208
       591.00001       289.27459       99748.275       7565.4639       1.0975000       2.0555000    -0.037750000       341.10500       2.0142496     0.013066451
       597.00002       289.23243       99748.478       7548.4183       1.3242500       2.2735000     -0.36300000       340.77800       1.9495012     0.017067378
       601.99999       289.17955       99761.009       7556.6085       2.0995000       1.9492500      0.21225000       340.90500       1.9574891     0.012389922
