MIRICO/SHELL project - Processed LDS file generated on
Thu Jul 06 20:10:21 2017
Time stamp for record start
05/10/2017  13:24:11.0000
Nb of points in the record
        1073
Beam position index
       6.0000000
Beam angle (degrees)
       13.615000
Open Path length (m)
       58.300000
****************** Temporal data record ************************
Elapsedtime_sec Temp_K Press_Pa Humidity_ppmv WindX_m/s WindY_m/s WindZ_m/s Speedofsound_m/s CH4vmr_ppmv CH4vmrerror_ppmv  
      0.00000000       289.21597       99795.919       7675.4581       1.9002500       2.5392500     -0.65425000       341.04500       1.9230456     0.022727175
       5.0000131       289.16943       99802.680       7636.6754       1.8907500       3.1730000     -0.20000000       340.65600       1.9342892     0.025753919
       9.9999860       288.96095       99803.742       7511.2938       1.5080000       2.3942500     -0.43575000       341.10300       1.9670693     0.025570522
       15.999994       288.85865       99806.207       7430.4713      0.52775000       1.4627500      0.31825000       341.53100       1.9453422     0.023352069
       21.000007       288.74531       99811.143       7348.3389      0.99850000       2.2540000      0.15800000       341.20100       1.9754366     0.025910121
       26.000020       288.71309       99811.457       7305.3245      0.50025000       2.0402500     -0.83375010       341.34100       1.9427965     0.021963058
       30.999993       288.83318       99809.007       7324.5931      0.72925000       1.1470000     0.017500000       341.41300       1.9853084     0.033436750
       36.000006       288.86912       99804.249       7314.4812      0.17675000       2.1950000     -0.36850000       341.80300       1.9977449     0.027864693
       41.000019       288.89550       99794.694       7302.2193      0.92775010       2.2580000      0.17700000       341.79000       1.9969512     0.034084958
       45.999992       288.91162       99787.675       7294.2500      0.71925000       2.2357500     -0.74975000       341.35400       2.0072911     0.028139941
       51.000005       288.91303       99777.451       7283.5360      0.39150000       1.4817500     -0.14450000       342.57200       1.9800272     0.024712818
       56.000018       288.89923       99772.159       7276.5753     0.075000000       1.5182500     0.064000000       341.76200       1.9434994     0.030090140
       60.999991       288.86128       99769.298       7274.3017      0.30450000       2.3497500     0.098750000       342.46300       1.9507298     0.033360570
       66.000004       288.84116       99768.984       7274.6687       1.5137500       2.1375000     -0.21975000       340.82100       1.9690164     0.030236751
       71.000017       288.79189       99771.598       7268.9615       1.5485000       3.4362500     -0.35550000       340.60500       2.0057565     0.035864588
       75.999990       288.78970       99776.357       7279.4480       1.1777500       3.0440000    -0.058000000       340.52100       2.0250529     0.029424653
       81.000003       288.83786       99786.099       7279.9830      0.98475000       2.4485000     -0.15875000       340.97300       1.9771337     0.030438004
       86.000016       288.85765       99793.050       7327.2848      0.75025000       2.1332500     -0.18900000       341.53200       2.0028897     0.030569285
       90.999989       288.85497       99804.523       7394.1126     -0.21350000       1.5342500     0.023750000       341.79500       1.9770645     0.026812238
       96.000002       288.91280       99808.443       7494.6181     -0.40525000       2.0750000    -0.078750010       340.46700       1.9595210     0.032066583
       101.00002       289.01384       99805.925       7706.7185      0.41750000       1.6567500      0.16975000       341.20500       1.9863033     0.029747713
       107.00002       289.08612       99805.369       7806.2979      0.66125010       2.8517500      0.28950000       341.16600       1.9777871     0.033646860
       112.00000       289.20894       99803.654       7862.8900      0.90900000       1.9362500     -0.18050000       340.88900       1.9516972     0.014274606
       117.00001       289.23458       99797.405       7871.3622      0.68000000       1.5250000      0.42500000       341.40000       1.9799365     0.029204864
       122.00002       289.16914       99789.775       7772.5196     -0.25450000       1.9100000     -0.46150000       340.99400       2.0004675     0.025470723
       127.00000       289.13318       99780.584       7717.8948     -0.78325000       2.0402500      0.17325000       341.62600       2.0027619     0.026445481
       132.00001       289.06015       99762.529       7654.4432      0.27450000       2.3312500     -0.14550000       341.12600       2.0063173     0.026241973
       137.00002       289.02671       99754.542       7609.0609      0.18800000       1.3165000      0.16875000       341.30100       1.9859276     0.029600011
       141.99999       289.00111       99747.049       7553.7323    -0.076500010       1.7137500      0.17850000       341.78300       2.0109125     0.027937885
       147.00001       288.98730       99749.159       7526.8375      0.88425000       1.0860000      0.15775000       341.68700       2.0323180     0.025572059
       152.00002       288.96645       99761.009       7505.6745      0.37225000       1.5230000    -0.061250000       341.95500       1.9652901     0.024235279
       156.99999       289.01481       99770.321       7535.1832     -0.39325000       1.5322500     -0.46775000       341.64300       1.9747222     0.026338825
       162.00001       289.10467       99787.538       7599.7540       1.4285000       2.0490000   -0.0025000000       341.65400       1.9456516     0.022362110
       167.00002       289.19677       99797.217       7673.9733      0.17225000       1.3180000      0.14075000       342.39300       1.9766536     0.025798197
       171.99999       289.35880       99805.430       7805.4772      0.49625000       2.6277500     0.013000000       341.36800       1.9686548     0.026855667
       177.00001       289.47178       99808.584       7906.3587     -0.49400000       2.2202500     -0.27300000       341.24900       2.0271220     0.026477798
       182.00002       289.59251       99808.663       8012.7112      -1.1455000       3.0105000     0.034000000       341.51600       1.9803936     0.022448219
       186.99999       289.64373       99804.819       8093.6211     -0.18025000       3.2800000    -0.067750010       341.10000       1.9870674     0.026866650
       192.00000       289.66684       99793.305       8182.1811       1.0530000       1.0522500     0.078250010       342.54100       1.9935384     0.026791471
       198.00001       289.65219       99784.950       8217.9195       1.1642500       1.1227500      0.12825000       342.60600       2.0346918     0.022653256
       202.99999       289.55012       99776.604       8202.8312      0.51050000       1.8472500     -0.33825000       342.43800       1.9784213     0.025894109
       208.00000       289.51866       99768.583       8180.6772      0.82675000       2.8117500     -0.17925000       341.78400       2.0186747     0.022100728
       213.00001       289.50596       99758.962       8117.3323      0.50375000       2.0032500      0.51100000       341.64300       1.9824196     0.014494440
       218.00002       289.47622       99757.565       8074.0484       1.0072500       1.2365000      0.31725000       342.23000       1.9941504     0.026732835
       223.00000       289.46453       99757.862       8027.3318       2.5817500       1.7832500      0.29825000       341.45400       1.9330098     0.027543062
       228.00001       289.42538       99761.600       7978.0723       1.0225000       2.1217500     -0.28600000       341.64400       1.9959458     0.022975793
       233.00002       289.34215       99772.770       7911.7792      0.24675000       2.7725000     -0.41475000       341.35200       1.9533543     0.026571918
       238.00000       289.32943       99782.693       7892.5580       1.1242500       2.4647500    0.0047500000       341.85500       1.9642434     0.025477687
       243.00001       289.34306       99795.641       7897.9510      0.98250010       1.6317500    -0.093250010       342.06700       1.9489641     0.025277727
       248.00002       289.35162       99800.949       7881.7459      0.83875010       2.3617500     -0.45125000       341.71400       1.9997575     0.026286182
       253.00000       289.39375       99806.456       7880.2414      0.44525000       2.0290000      0.13275000       341.79600       1.9742469     0.025591308
       258.00001       289.42320       99807.717       7885.5081      0.50225000       3.3560000     -0.79675000       341.71800       1.9843076     0.026076153
       263.00002       289.47319       99802.956       7877.1000       1.4750000       1.8015000      0.30900000       341.34200       1.9378080     0.025882972
       267.99999       289.43772       99796.392       7877.4385      0.71350000       4.0342500     -0.57025000       341.05400       1.9778643     0.027069954
       273.00001       289.36794       99788.482       7912.0157       1.7757500       3.2532500     -0.41000000       341.14500       2.0366507     0.025644363
       278.00002       289.31866       99778.582       7911.0685     -0.71525000       3.0632500      0.63375000       342.20700       1.9752911     0.023665106
       283.99999       289.18264       99757.335       7875.1736     0.089750010       4.1615000     0.021500000       341.90100       1.9580106     0.025319777
       289.00000       289.22930       99755.041       7884.4878      0.16350000       3.8392500     -0.34300000       340.91400       1.9842306     0.024741610
       294.00001       289.21207       99757.407       7880.0726     -0.31500000       3.0292500     -0.21675000       341.50000       1.9894380     0.028658180
       298.99999       289.18460       99774.908       7892.6485     0.073250000       2.9457500     -0.13400000       341.10500       2.0066767     0.019228496
       304.00000       289.11871       99785.987       7873.2288      0.82350000       2.9145000     -0.50325000       341.16900       1.9828539     0.022451319
       309.00001       289.01590       99795.843       7832.9810     0.092000010       2.7262500     -0.59725000       340.87800       2.0054969     0.021727278
       313.99999       288.84046       99807.714       7764.5940     -0.48225000       2.3155000     -0.40025000       341.27500       1.9883236     0.020871022
       319.00000       288.76284       99810.103       7718.5242   -0.0097500000       1.6387500     -0.52475010       340.55100       2.0334190     0.014638164
       324.00001       288.68246       99806.945       7654.0333     -0.52125000       1.4487500     -0.15875000       340.64300       1.9829814     0.023586332
       328.99999       288.69983       99797.066       7631.3304     -0.45575000       1.4265000    -0.030500000       340.75800       1.9624423     0.022995285
       334.00000       288.69985       99790.010       7613.0176     -0.10200000       1.2380000     -0.14275000       341.10100       1.9831080     0.019781194
       339.00001       288.68483       99783.293       7600.0326    -0.059000000      0.82100000      0.35275000       342.02800       1.9732764     0.026379275
       343.99998       288.69349       99775.412       7595.7812      0.16450000      0.61050000      0.44975000       341.12500       1.9832652     0.026158528
       349.00000       288.69991       99762.778       7576.8366       1.4280000       1.5270000     -0.23300000       341.01700       1.9500883     0.023711167
       354.00001       288.73699       99758.408       7602.6598      0.63925000       1.2070000      0.39550000       341.37600       1.9738453     0.020853419
       359.00002       288.79865       99757.718       7655.9766     -0.13950000      0.93000010     -0.23925000       341.76400       2.0252650     0.028763099
       364.00000       288.89803       99756.762       7743.8649     -0.12400000      0.96050010      0.29550000       342.28100       1.9922898     0.024870568
       369.00001       288.96870       99765.463       7798.9913      0.54850000       1.1107500    -0.070250000       341.38900       2.0115314     0.023016021
       375.00002       289.07076       99788.112       7892.8686      0.32075000      0.80825000      0.14825000       341.03300       1.9255082     0.025688315
       379.99999       289.11855       99799.987       7931.1471      0.84550010       1.3970000     -0.36850000       341.43300       2.0020561     0.017554516
       385.00000       289.11545       99803.411       7936.6161      0.31450000       1.0432500     -0.26900000       341.35500       1.9542158     0.026952812
       390.00002       289.03157       99795.127       7916.5462      0.24025000      0.99925010     0.013500000       341.83700       2.0597201     0.012633080
       394.99999       288.99175       99790.121       7896.8329     0.036250000      0.99725000      0.14700000       341.60200       1.9562515     0.016731413
       400.00000       288.88970       99781.800       7814.0802      0.81300000       1.3732500   -0.0077500000       342.03000       1.9843574     0.028839657
       405.00002       288.87528       99773.749       7783.5388       1.0047500       2.1265000     -0.49625000       340.84600       1.9465281     0.031963694
       409.99999       288.98263       99764.550       7811.2896      0.68025000       1.7970000     -0.17050000       341.38100       1.9474604     0.030915009
       415.00000       289.01160       99758.709       7796.5608       1.2477500       1.7352500     -0.13575000       342.67800       2.0216401     0.025505411
       420.00002       289.04664       99745.273       7782.8905      0.75750010       2.9925000     -0.57775000       341.28700       1.9995810     0.026240535
       424.99999       289.06446       99747.093       7758.1479      0.82225010       2.0252500     0.069250000       340.62400       1.9966494     0.024063079
       430.00000       289.00908       99767.365       7680.6409      0.57275000       1.1072500      0.21100000       340.76200       1.9699973     0.024299603
       435.00001       288.99046       99777.262       7642.5893      0.29775000      0.88750000      0.50925000       341.83700       2.0015840     0.025819032
       439.99999       288.99961       99798.295       7604.7856      0.58500000       1.9755000     -0.48325000       340.70100       1.9922412     0.029216568
       445.00000       288.99934       99805.428       7606.6808      0.39950000       1.6412500      0.42075000       341.72400       1.9698501     0.026438095
       450.00001       288.95616       99794.996       7629.7077       1.0617500       2.1845000     -0.35950000       340.56200       1.9577579     0.029000175
       454.99999       288.99026       99789.793       7688.6351      0.81725000       1.9142500     -0.11375000       340.90400       1.9908767     0.018851049
       460.00000       289.05910       99774.464       7798.3785      0.63275000       1.5252500     -0.13475000       341.53700       1.9901147     0.023888805
       466.00001       289.17647       99772.188       7938.3899      0.66975000       1.3357500      0.15850000       342.18600       1.9385785     0.028538059
       471.00002       289.37513       99784.929       8104.4902      0.53250000       1.8777500     -0.37700000       340.86700       1.9948136     0.021509926
       475.99999       289.51201       99786.591       8243.2492      0.93800000      0.77425000      0.27200000       341.81300       1.9152996     0.022405440
       481.00001       289.67413       99788.670       8431.7915      0.51650000       1.6902500     -0.60875000       341.23600       1.9962401     0.032576818
       486.00002       289.74822       99792.285       8512.6957      0.75525000       1.4892500      0.45550000       341.89800       2.0019880     0.024908054
       490.99999       289.75267       99788.667       8540.8009      0.42950000      0.62575000      0.36450000       343.05200       1.9627118     0.026312143
       496.00001       289.76447       99789.446       8531.8878       1.4117500      0.88950000    -0.064250000       342.27400       1.9897652     0.025969940
       501.00002       289.70554       99801.833       8416.8286      0.65900000      0.64700000      0.15575000       341.53100       2.0097466     0.018618321
       505.99999       289.68934       99802.364       8343.3815     -0.23550000      0.85150000     -0.14800000       342.08500       1.9776216     0.026402002
       511.00000       289.71304       99793.783       8260.2437     -0.13200000       1.1387500     -0.42475000       341.14500       2.0030675     0.026292694
       516.00002       289.69939       99788.353       8186.9287      0.14500000      0.64300000      0.22675000       341.58100       1.9878768     0.023268956
       520.99999       289.63566       99779.862       8107.6628     -0.24825000      0.68050000      0.19350000       342.53100       1.9979789     0.028311104
       526.00000       289.64315       99771.904       8051.5389     0.066500000       1.6315000      0.36600000       342.53300       2.0342511     0.029216363
       531.00002       289.66809       99759.430       8002.7328     -0.46150000       2.1155000     -0.21925000       341.29100       1.9908753     0.021780677
       535.99999       289.70500       99757.944       7973.7242      -1.0685000       3.1310000    -0.017000000       341.68400       1.9841751     0.025714785
       541.00000       289.88112       99759.840       8003.4382      0.39325000       2.3752500     0.041000000       342.45200       1.9820885     0.026675696
       546.00002       289.87812       99765.427       7965.8763      0.46425000       1.5035000      0.28425000       343.04200       1.9840561     0.021317040
       550.99999       289.76869       99788.756       7906.3852       1.7432500       2.7432500     0.013500000       341.25900       2.0439800     0.020650866
       557.00000       289.65471       99795.437       7833.2754      0.83325000       2.2460000     0.037250000       341.82800       2.0250283     0.021649495
       562.00001       289.41742       99791.670       7705.8229      0.44800000       1.6740000      0.19950000       341.82500       2.0574613     0.021243216
       567.00002       289.32157       99790.443       7652.2272     -0.19450000       1.4765000     -0.23525000       341.10400       1.9694630     0.020936062
       572.00000       289.30152       99783.694       7644.8403     0.015250000       1.9290000     -0.22275000       341.31400       1.9955035     0.023666999
       577.00001       289.27409       99776.099       7620.3949      0.24750000       2.1915000     -0.12800000       341.59800       1.9891415     0.026743835
       582.00002       289.31158       99767.937       7621.4542     -0.29625000       1.4000000     -0.52875000       342.10000       2.0068393     0.027336521
       586.99999       289.29511       99761.927       7602.5700     -0.19300000       1.6052500      0.51400000       342.75400       2.0061265     0.023585215
       592.00001       289.26880       99747.555       7561.6467       1.9465000       2.1722500     -0.96000000       341.08100       1.9925452     0.021537411
       597.00002       289.23243       99748.478       7548.4183       1.3300000       2.2682500     -0.13075000       340.76800       1.9752355     0.026359271
       601.99999       289.17955       99761.009       7556.6085       1.6417500       1.9220000     -0.24475000       341.63400       1.9926000     0.013387978
