MIRICO/SHELL project - Processed LDS file generated on
Sat Jul 08 01:41:07 2017
Time stamp for record start
05/10/2017  13:24:12.0000
Nb of points in the record
        1073
Beam position index
       7.0000000
Beam angle (degrees)
       19.305000
Open Path length (m)
       33.730000
****************** Temporal data record ************************
Elapsedtime_sec Temp_K Press_Pa Humidity_ppmv WindX_m/s WindY_m/s WindZ_m/s Speedofsound_m/s CH4vmr_ppmv CH4vmrerror_ppmv  
      0.00000000       289.21176       99797.471       7670.5804       1.9190000       3.2905000      -1.1522500       340.77700       1.9601441     0.022778176
       5.0000131       289.15248       99803.732       7624.6221       1.6260000       2.8602500    0.0020000000       340.89400       1.9414399     0.027886051
       10.000026       288.94139       99804.151       7496.7872       1.1807500       2.0392500     -0.44225000       341.18000       1.8891420     0.024965293
       14.999999       288.85865       99806.207       7430.4713       1.1737500       1.0700000      0.45275000       341.29300       1.8359562     0.020492054
       20.000012       288.74531       99811.143       7348.3389       1.0047500       2.1465000     0.012500000       341.42000       1.8280295     0.021547027
       25.000025       288.71309       99811.457       7305.3245      0.91625010       1.8400000    -0.059500000       341.81500       1.8675615     0.019186921
       29.999998       288.83318       99809.007       7324.5931      0.15650000      0.90900000    0.0077500000       341.63200       1.8787095     0.021693606
       35.000011       288.86912       99804.249       7314.4812      0.37100000       2.7610000     -0.22750000       341.89500       1.8445619     0.021307462
       40.000024       288.89550       99794.694       7302.2193       1.0697500       2.5482500     -0.21375000       341.21200       1.8672403     0.011263849
       44.999997       288.91162       99787.675       7294.2500      0.16500000       2.2505000     -0.49875000       341.33000       1.9541287     0.018119575
       50.000010       288.91303       99777.451       7283.5360      0.45425000       1.3932500    0.0047500000       342.27400       1.8316128     0.021348069
       55.000024       288.89923       99772.159       7276.5753      0.84350000       2.1702500     0.090500000       341.74600       1.8602572     0.018372919
       59.999996       288.86128       99769.298       7274.3017     0.061750000       2.2380000      0.59725000       342.55200       1.8332573     0.012467524
       66.000004       288.83718       99769.225       7274.9962       1.5737500       3.0122500     -0.12225000       340.95500       1.8965767     0.018908913
       71.000017       288.78948       99772.352       7270.3265       1.6357500       3.3560000     -0.75725000       341.91700       1.9501131     0.016707415
       76.000030       288.79222       99777.606       7282.6461       1.0557500       3.0212500    -0.050000000       340.53800       1.8362341     0.023138681
       81.000003       288.84181       99787.490       7287.2938      0.68100010       2.0495000     0.085750010       341.02300       1.8500902     0.019001118
       86.000016       288.86161       99794.439       7339.9735      0.97000000       1.6125000     -0.20650000       341.55400       1.9422495     0.017244511
       91.000029       288.86449       99805.606       7411.6233    -0.076500010       1.6197500     -0.23125000       342.01800       1.9006366     0.016030022
       96.000002       288.92743       99808.779       7518.6354     -0.37525000       2.0040000    -0.043750000       340.56600       1.9554842     0.013153400
       101.00002       289.02589       99805.953       7727.6185      0.47525000       2.4445000      0.28350000       341.33900       1.8924172     0.019079845
       106.00003       289.08612       99805.369       7806.2979      0.21275000       2.8450000     -0.36100000       341.42000       1.9396587     0.013751670
       111.00000       289.20894       99803.654       7862.8900       1.0682500       2.0087500     -0.43175000       340.66800       1.8287095     0.016703726
       116.00001       289.23458       99797.405       7871.3622      0.69275000       1.1417500      0.32825000       342.06100       1.9075369     0.016352524
       121.00003       289.16914       99789.775       7772.5196     0.076500010       1.7745000     -0.65975000       340.99300       1.9601565     0.012948298
       126.00000       289.13318       99780.584       7717.8948     -0.18075000       1.6110000     0.040750000       341.49300       1.8855774     0.018625608
       131.00001       289.06015       99762.529       7654.4432     -0.40425000       2.1480000    -0.096500000       341.24600       1.8564651     0.016747310
       136.00003       289.02671       99754.542       7609.0609      0.19300000       1.4320000      0.13025000       341.59900       1.8270467     0.021052625
       141.00000       289.00111       99747.049       7553.7323      0.57275000       2.0280000      0.21000000       341.87700       1.8372079     0.019385889
       146.00001       288.98730       99749.159       7526.8375       1.3322500       1.3985000     -0.30250000       341.55600       1.8129238     0.022806126
       151.00003       288.96645       99761.009       7505.6745       1.3815000      0.98625000      0.65725000       342.22600       1.7641888     0.019448906
       156.99999       289.02901       99772.475       7544.9410     -0.19850000       1.6930000    -0.072000000       341.82400       1.8723107     0.017733925
       162.00001       289.12112       99789.672       7612.6611       1.6770000       1.5940000     -0.70550000       341.65300       1.9414579     0.012887477
       167.00002       289.21814       99798.856       7691.7443      0.20100000       1.3550000     0.033500000       342.07500       1.9202763     0.017739634
       171.99999       289.38238       99806.354       7825.8591      0.45750000       3.2335000     -0.54000000       341.22900       1.8073019     0.018824063
       177.00001       289.49290       99808.775       7926.2200     -0.24400000       2.5630000     -0.39325000       341.66700       1.9180684     0.017885667
       182.00002       289.60573       99808.200       8029.9443     -0.55450000       2.4312500      0.21425000       341.70400       2.0092615     0.012332743
       186.99999       289.64951       99803.592       8108.2067      0.16375000       3.1007500    -0.022000000       341.44200       1.8481848     0.023839608
       192.00000       289.66815       99791.910       8191.5525      0.88575010       1.1567500      0.31725000       342.48800       1.8053150     0.021182310
       197.00002       289.65219       99784.950       8217.9195       1.0405000       1.9375000     -0.58650000       341.18500       1.8442784     0.014390159
       201.99999       289.55012       99776.604       8202.8312      0.54200010       1.7852500     -0.85150000       341.76200       1.9230498     0.013136529
       207.00000       289.51866       99768.583       8180.6772    0.0070000000       3.0135000     0.085750010       341.77100       1.8924850     0.018239710
       212.00002       289.50596       99758.962       8117.3323       1.2275000       1.9090000      0.19100000       341.65900       1.8164293     0.015815359
       217.00003       289.47622       99757.565       8074.0484       2.1272500       1.0725000      0.52250000       342.70800       1.7972308     0.024999762
       222.00000       289.46453       99757.862       8027.3318       2.8032500       1.6915000     -0.10325000       340.97700       1.8208575     0.019071098
       227.00002       289.42538       99761.600       7978.0723      0.71700000       1.8782500     -0.67925010       341.50000       1.8191430     0.021588187
       232.00003       289.34215       99772.770       7911.7792       1.5185000       3.3652500     -0.33400000       341.18400       1.7756941     0.024242054
       237.00000       289.32943       99782.693       7892.5580     0.056500000       2.6620000     0.090750000       342.04300       1.7731282     0.023769379
       242.00002       289.34306       99795.641       7897.9510      0.31975000       1.7040000     0.046500000       341.95900       1.7719384     0.027339117
       248.00002       289.37015       99802.788       7877.8742      0.64225000       2.6760000     -0.41900000       341.70200       1.7611138     0.024177589
       253.00000       289.39964       99807.004       7881.0893       1.6400000       1.8470000     -0.33375000       341.93700       1.8680879     0.025487482
       258.00001       289.47501       99806.448       7881.9272      0.89850000       2.8132500     -0.27600000       341.74000       1.8293668     0.020686559
       263.00002       289.46904       99801.839       7876.6036       1.2297500       2.3322500      0.51525000       341.60800       1.8309311     0.022498602
       267.99999       289.42621       99794.786       7878.3440       1.4492500       4.2970000      -1.2510000       341.17800       1.8830674     0.018432347
       273.00001       289.35917       99786.713       7912.9040       1.5470000       4.1147500      -1.1910000       341.21700       1.8000000     0.023788944
       278.00002       289.30718       99776.285       7909.2648     -0.83550010       2.2150000      0.29800000       341.50600       1.8358030     0.026857288
       282.99999       289.18264       99757.335       7875.1736     -0.44700000       3.0807500    -0.012500000       341.51900       1.8716356     0.024208846
       288.00001       289.22930       99755.041       7884.4878     -0.22350000       3.9927500     -0.31400000       340.87500       1.7599564     0.023182359
       293.00002       289.21207       99757.407       7880.0726    -0.029750000       2.8405000     -0.24600000       341.59900       1.7576769     0.023650411
       297.99999       289.18460       99774.908       7892.6485     -0.16875000       2.8237500     -0.10350000       341.27700       1.8584257     0.019015334
       303.00001       289.11871       99785.987       7873.2288      0.15225000       2.3600000      0.26550000       341.46100       1.8579101     0.014415658
       308.00002       289.01590       99795.843       7832.9810     -0.36600000       2.7212500     -0.66625010       341.16700       1.8083276     0.026876586
       312.99999       288.84046       99807.714       7764.5940     -0.45525000       1.9607500    -0.079000000       340.49200       1.9338511     0.018064936
       318.00001       288.76284       99810.103       7718.5242    -0.049500000       1.4695000     -0.28875000       340.50800       1.9230735     0.018336867
       323.00002       288.68246       99806.945       7654.0333     -0.48000000       1.4327500     -0.26200000       340.60600       1.8388042     0.031933707
       327.99999       288.69983       99797.066       7631.3304    0.0030000000       1.3232500      0.33775000       341.09600       1.9244068     0.017730857
       333.00000       288.69985       99790.010       7613.0176      0.52800000       1.2685000      0.20325000       341.36500       1.8273975     0.019120192
       339.00001       288.68558       99781.717       7598.5235      0.17225000       1.0232500    -0.011750000       341.72800       1.7025110     0.023440144
       344.00003       288.69670       99773.835       7595.9190      0.28600000      0.92375000      0.42750000       341.40800       1.9048690     0.017592616
       349.00000       288.70536       99761.610       7579.8154       1.1950000       1.0852500     -0.44850000       341.11200       1.8496840     0.021642843
       354.00001       288.74735       99757.976       7611.1130      0.74875000       1.1685000      0.26550000       340.84800       1.8558687     0.038333234
       359.00002       288.84201       99754.383       7700.1700      0.36775000       1.2735000    -0.066000000       341.52400       1.8394609     0.023021630
       364.00000       288.91211       99757.993       7754.8449      0.11925000       1.0200000      0.33750000       341.82400       1.8632505     0.018181623
       369.00001       289.01295       99778.327       7835.3335      0.49475000       1.0267500      0.12400000       341.69600       1.9016670     0.014361881
       374.00002       289.07076       99788.112       7892.8686      0.44250000       1.0980000    0.0085000000       341.16000       1.8673384     0.023415233
       379.00000       289.11855       99799.987       7931.1471      0.61975000       1.3805000     -0.22600000       340.72000       1.9148897     0.026467926
       384.00001       289.11545       99803.411       7936.6161      0.17500000      0.96375010     0.027500000       341.39800       1.8451604     0.023181574
       389.00002       289.03157       99795.127       7916.5462      0.47850000       1.0830000    -0.039750000       341.84100       1.8962809     0.020434882
       394.00000       288.99175       99790.121       7896.8329      0.18175000      0.96250000      0.20550000       341.82500       1.9136885     0.019758712
       399.00001       288.88970       99781.800       7814.0802      0.61150000       1.6775000     -0.15475000       340.84200       1.9286645     0.020234748
       404.00002       288.87528       99773.749       7783.5388      0.88550000       1.5540000     -0.22075000       340.88300       1.8136026     0.024963965
       408.99999       288.98263       99764.550       7811.2896      0.86875000       2.3145000      0.16125000       341.86000       1.8665287     0.021368787
       414.00001       289.01160       99758.709       7796.5608       1.1205000       1.4632500      0.65275000       343.06800       1.8298272     0.028744987
       419.00002       289.04664       99745.273       7782.8905      0.64550000       2.9385000     -0.53975000       340.80400       1.8518889     0.028664558
       425.00003       289.06501       99748.514       7751.3613      0.80975000       2.5795000     0.041750000       340.91300       1.8680289     0.031437300
       430.00000       289.00437       99769.345       7671.8156      0.57300000       1.1807500      0.47950000       341.53800       1.8972184     0.028001099
       435.00001       288.98821       99779.241       7636.7966      0.47025000      0.79000000      0.54225000       341.76200       1.8509964     0.020492287
       440.00003       288.99956       99800.411       7602.9503      0.53200000       1.6310000     -0.35950000       340.99100       1.8644989     0.017709123
       445.00000       288.99928       99805.821       7610.3809       1.3402500       1.3715000      0.31325000       343.18900       1.9064713     0.019982145
       450.00001       288.95993       99794.063       7638.8118       1.0847500       1.8057500     -0.44500000       340.61400       1.8310774     0.022999116
       455.00003       289.00165       99788.593       7704.4659      0.50625000       2.0422500    -0.068500000       341.34000       1.8788322     0.019554811
       460.00000       289.07490       99773.461       7819.7551      0.66300000       1.5760000     -0.23150000       340.59300       1.8918026     0.017720070
       465.00001       289.17647       99772.188       7938.3899      0.37200000       1.2532500      0.31600000       342.45800       1.8357730     0.028569050
       470.00003       289.37513       99784.929       8104.4902      0.56000000       1.7175000     -0.59875010       340.92400       1.8128113     0.022958042
       475.00000       289.51201       99786.591       8243.2492      0.65675000      0.93825010     -0.52900000       341.58700       1.7918533     0.023071369
       480.00001       289.67413       99788.670       8431.7915      0.39700000       1.7455000     -0.66225000       340.91800       1.8558366     0.023865739
       485.00002       289.74822       99792.285       8512.6957       1.1102500       1.3500000      0.24250000       342.15500       1.8577771     0.025260426
       490.00000       289.75267       99788.667       8540.8009      0.83800010       1.0527500      0.39575000       342.83700       1.8102175     0.022477805
       495.00001       289.76447       99789.446       8531.8878       1.2942500      0.30550000    -0.094250000       341.52900       1.9052889     0.017477154
       500.00002       289.70554       99801.833       8416.8286      0.74775000      0.53175000     -0.41675000       341.28900       1.8093348     0.022598183
       505.00000       289.68934       99802.364       8343.3815     0.069000010      0.69500010     0.062500000       342.95000       1.8847237     0.020548559
       510.00001       289.71304       99793.783       8260.2437      0.11025000      0.98375000     -0.47475000       341.44900       1.8401654     0.032004352
       516.00002       289.69514       99787.122       8172.7358      0.27650000      0.52350000    -0.017000000       341.36400       1.8480344     0.027810285
       520.99999       289.63519       99778.270       8095.4214     -0.28275000      0.47700000    -0.047750000       342.50500       1.8574091     0.023507395
       526.00000       289.64760       99770.314       8041.8287     -0.23000000       1.9495000      0.15575000       341.25900       1.9153291     0.019128385
       531.00002       289.67351       99758.739       7995.5945     -0.93325010       1.9300000     0.019500000       342.08300       1.8296208     0.021750434
       536.00003       289.71533       99758.237       7969.9230      -1.1097500       2.5230000     -0.45575000       341.98500       1.8740610     0.016693855
       541.00000       289.88657       99760.545       7997.7033      0.55475000       2.2572500     -0.38075000       342.45400       1.8413359     0.027543024
       546.00002       289.86845       99767.163       7955.7194    -0.064000000       1.9130000      0.51575010       341.84000       1.8337242     0.027717685
       551.00003       289.75344       99790.493       7895.7664       1.5352500       2.2137500      0.17400000       341.23100       1.9190170     0.017346217
       556.00000       289.65471       99795.437       7833.2754      0.65925000       2.4127500    -0.034250000       341.91800       1.9059681     0.016305951
       561.00001       289.41742       99791.670       7705.8229       1.1890000       1.5402500      0.14850000       342.14100       1.9164898     0.018383941
       566.00003       289.32157       99790.443       7652.2272     -0.25775000       2.2570000      0.40550000       341.92200       1.8318925     0.019944951
       571.00000       289.30152       99783.694       7644.8403    -0.042500000       2.0230000    -0.070000000       341.97400       1.8095579     0.023236745
       576.00001       289.27409       99776.099       7620.3949      0.18050000       1.8397500     -0.54600000       341.65200       1.8228733     0.021751041
       581.00003       289.31158       99767.937       7621.4542      0.34350000       2.2725000      0.41325000       342.42100       1.8160726     0.018074113
       586.00000       289.29511       99761.927       7602.5700      0.45025000       2.8892500    -0.013250000       341.31500       1.7633307     0.021514576
       591.00001       289.26880       99747.555       7561.6467       1.0420000       2.4215000      0.20175000       341.71600       1.8465611     0.013968015
       596.00003       289.23243       99748.478       7548.4183       1.5592500       2.0015000     0.095750000       341.24700       1.9135898     0.016722022
       601.00000       289.17955       99761.009       7556.6085       2.5665000       1.5405000      0.19975000       340.98800       1.8172334     0.020557670
